   323    17    0     datakind beginning-row linenumbers
----------------------------------------------------------------
MSCD Version 1.00 Yufeng Chen and Michel A Van Hove
Lawrence Berkeley National Laboratory (LBNL), Berkeley, CA 94720
Copyright (c) Van Hove Group 1997. All rights reserved
--------------------------------------------------------------
 angle-resolved photoemission extended fine structure (ARPEFS)
 experimental data for Pd 3d3/2 from W(100)  excited with hv=1810eV

 provided by Pancotti et al. (LNLS in 12, June 2007)
   intial angular momentum (l) = 2
   photon polarization angle (polar,azimuth) = (  30.0,   0.0 ) (deg)
   sample temperature = 300 K

   photoemission angular scan curves
     (curve point theta phi weightc weighte//k intensity chiexp)
      20    2400       1      20     120    2400
       1     120      9.85000      12      1.00000      0.00000
      2.50000      269167.      319062.   -0.0054623
      5.50000      266382.      319062.   -0.0002603
      8.50000      259502.      319062.    0.0052776
      11.5000      254191.      319062.    0.0078388
      14.5000      351611.      319062.    0.2001880
      17.5000      266761.      319062.    0.0468255
      20.5000      270759.      319062.    0.0654959
      23.5000      267341.      319062.    0.0502572
      26.5000      276003.      319062.    0.0645329
      29.5000      273072.      319062.    0.0488766
      32.5000      278575.      319062.    0.0594443
      35.5000      277341.      319062.    0.0382841
      38.5000      280461.      319062.    0.0469004
      41.5000      268175.      319062.    0.0208930
      44.5000      271051.      319062.    0.0106714
      47.5000      265570.      319062.   -0.0141605
      50.5000      264767.      319062.   -0.0224431
      53.5000      262314.      319062.   -0.0388157
      56.5000      255418.      319062.   -0.0550325
      59.5000      257550.      319062.   -0.0451912
      62.5000      259827.      319062.   -0.0530593
      65.5000      259519.      319062.   -0.0433703
      68.5000      259614.      319062.   -0.0386997
      71.5000      254032.      319062.   -0.0536608
      74.5000      264744.      319062.   -0.0401209
      77.5000      269371.      319062.   -0.0359434
      80.5000      271097.      319062.   -0.0325183
      83.5000      266939.      319062.   -0.0376470
      86.5000      277998.      319062.   -0.0230184
      89.5000      280092.      319062.   -0.0219751
      92.5000      280690.      319062.   -0.0395365
      95.5000      285104.      319062.   -0.0337753
      98.5000      292062.      319062.   -0.0259762
      101.500      296504.      319062.   -0.0187035
      104.500      294622.      319062.   -0.0260700
      107.500      299760.      319062.   -0.0341533
      110.500      306988.      319062.   -0.0360873
      113.500      317742.      319062.   -0.0141626
      116.500      328847.      319062.   -0.0076406
      119.500      333756.      319062.   -0.0044918
      122.500      340752.      319062.   -0.0042082
      125.500      351938.      319062.    0.0161016
      128.500      325586.      319062.   -0.0514754
      131.500      339400.      319062.   -0.0341525
      134.500      344807.      319062.   -0.0156754
      137.500      357484.      319062.   -0.0055337
      140.500      362181.      319062.    0.0188725
      143.500      366549.      319062.    0.0200106
      146.500      377452.      319062.    0.0286845
      149.500      388699.      319062.    0.0495041
      152.500      389505.      319062.    0.0678032
      155.500      379806.      319062.    0.0269503
      158.500      379882.      319062.    0.0262681
      161.500      382815.      319062.    0.0272908
      164.500      370866.      319062.    0.0135280
      167.500      370506.      319062.   -0.0092050
      170.500      369678.      319062.    0.0059653
      173.500      364105.      319062.   -0.0105763
      176.500      372651.      319062.   -0.0054797
      179.500      367849.      319062.   -0.0168243
      182.500      375645.      319062.   -0.0054623
      185.500      381549.      319062.   -0.0002603
      188.500      393458.      319062.    0.0052777
      191.500      400969.      319062.    0.0078388
      194.500      406444.      319062.    0.2001880
      197.500      408786.      319062.    0.0468255
      200.500      415234.      319062.    0.0654959
      203.500      406810.      319062.    0.0502572
      206.500      403445.      319062.    0.0645329
      209.500      394212.      319062.    0.0488766
      212.500      392677.      319062.    0.0594443
      215.500      377262.      319062.    0.0382841
      218.500      377843.      319062.    0.0469004
      221.500      374570.      319062.    0.0208930
      224.500      361968.      319062.    0.0106714
      227.500      350462.      319062.   -0.0141605
      230.500      344708.      319062.   -0.0224431
      233.500      335540.      319062.   -0.0388157
      236.500      332628.      319062.   -0.0550325
      239.500      336316.      319062.   -0.0451912
      242.500      327392.      319062.   -0.0530593
      245.500      334423.      319062.   -0.0433703
      248.500      337458.      319062.   -0.0386997
      251.500      334159.      319062.   -0.0536608
      254.500      330122.      319062.   -0.0401209
      257.500      327555.      319062.   -0.0359434
      260.500      328254.      319062.   -0.0325183
      263.500      330385.      319062.   -0.0376470
      266.500      327751.      319062.   -0.0230184
      269.500      326883.      319062.   -0.0219751
      272.500      315541.      319062.   -0.0395364
      275.500      315541.      319062.   -0.0337753
      278.500      314262.      319062.   -0.0259761
      281.500      315661.      319062.   -0.0187035
      284.500      314534.      319062.   -0.0260700
      287.500      305660.      319062.   -0.0341533
      290.500      298904.      319062.   -0.0360873
      293.500      304047.      319062.   -0.0141625
      296.500      299486.      319062.   -0.0076406
      299.500      299213.      319062.   -0.0044918
      302.500      295418.      319062.   -0.0042082
      305.500      300367.      319062.    0.0161016
      308.500      299866.      319062.   -0.0514754
      311.500      298436.      319062.   -0.0341524
      314.500      304656.      319062.   -0.0156753
      317.500      299781.      319062.   -0.0055337
      320.500      309799.      319062.    0.0188725
      323.500      306185.      319062.    0.0200106
      326.500      301762.      319062.    0.0286845
      329.500      304105.      319062.    0.0495041
      332.500      312966.      319062.    0.0678032
      335.500      295882.      319062.    0.0269503
      338.500      294262.      319062.    0.0262681
      341.500      291399.      319062.    0.0272908
      344.500      291308.      319062.    0.0135280
      347.500      277578.      319062.   -0.0092050
      350.500      285269.      319062.    0.0059653
      353.500      278844.      319062.   -0.0105763
      356.500      274057.      319062.   -0.0054797
      359.500      269972.      319062.   -0.0168243
       2     120      9.85000      15      1.00000      0.00000
      2.50000      235794.      296703.    0.0184567
      5.50000      228912.      296703.    0.0273010
      8.50000      222312.      296703.    0.0270486
      11.5000      234822.      296703.    0.0647768
      14.5000      233889.      296703.    0.0879858
      17.5000      232250.      296703.    0.0768201
      20.5000      234889.      296703.    0.0994877
      23.5000      227673.      296703.    0.0698865
      26.5000      230738.      296703.    0.0634858
      29.5000      226790.      296703.    0.0372215
      32.5000      224285.      296703.    0.0211258
      35.5000      213607.      296703.   -0.0360108
      38.5000      217723.      296703.   -0.0473012
      41.5000      217815.      296703.   -0.0494651
      44.5000      215114.      296703.   -0.0671516
      47.5000      203018.      296703.   -0.0997067
      50.5000      208530.      296703.   -0.0786582
      53.5000      212709.      296703.   -0.0648342
      56.5000      200700.      296703.   -0.0770408
      59.5000      209531.      296703.   -0.0501252
      62.5000      213154.      296703.   -0.0319724
      65.5000      207344.      296703.   -0.0447392
      68.5000      218676.      296703.   -0.0155681
      71.5000      217000.      296703.   -0.0163815
      74.5000      229683.      296703.   -0.0041116
      77.5000      234352.      296703.    0.0063737
      80.5000      237542.      296703.    0.0132961
      83.5000      244907.      296703.    0.0215956
      86.5000      249684.      296703.    0.0178963
      89.5000      251695.      296703.    0.0202913
      92.5000      256114.      296703.    0.0287393
      95.5000      258233.      296703.    0.0189435
      98.5000      268567.      296703.    0.0285503
      101.500      269750.      296703.    0.0205725
      104.500      277414.      296703.    0.0227697
      107.500      270216.      296703.   -0.0123248
      110.500      273636.      296703.   -0.0005173
      113.500      274016.      296703.   -0.0153402
      116.500      279755.      296703.   -0.0158330
      119.500      282656.      296703.   -0.0427606
      122.500      286123.      296703.   -0.0465373
      125.500      293756.      296703.   -0.0654109
      128.500      328712.      296703.   -0.1187175
      131.500      336508.      296703.   -0.1010930
      134.500      348417.      296703.   -0.0846855
      137.500      359682.      296703.   -0.0670536
      140.500      370336.      296703.   -0.0456623
      143.500      385985.      296703.   -0.0267915
      146.500      404567.      296703.    0.0220370
      149.500      408552.      296703.    0.0454209
      152.500      419810.      296703.    0.0552342
      155.500      423372.      296703.    0.0695251
      158.500      425376.      296703.    0.0782649
      161.500      419413.      296703.    0.0764600
      164.500      415889.      296703.    0.0741421
      167.500      403499.      296703.    0.0551241
      170.500      391510.      296703.    0.0172084
      173.500      384759.      296703.    0.0300652
      176.500      386819.      296703.    0.0204488
      179.500      383826.      296703.    0.0158883
      182.500      385277.      296703.    0.0184567
      185.500      399778.      296703.    0.0273010
      188.500      406913.      296703.    0.0270486
      191.500      410396.      296703.    0.0647767
      194.500      425719.      296703.    0.0879858
      197.500      416182.      296703.    0.0768201
      200.500      424996.      296703.    0.0994877
      203.500      411507.      296703.    0.0698865
      206.500      398058.      296703.    0.0634858
      209.500      382101.      296703.    0.0372215
      212.500      371542.      296703.    0.0211258
      215.500      345034.      296703.   -0.0360108
      218.500      327557.      296703.   -0.0473013
      221.500      323792.      296703.   -0.0494652
      224.500      313739.      296703.   -0.0671516
      227.500      308790.      296703.   -0.0997067
      230.500      313348.      296703.   -0.0786581
      233.500      315140.      296703.   -0.0648342
      236.500      324627.      296703.   -0.0770408
      239.500      328414.      296703.   -0.0501253
      242.500      334474.      296703.   -0.0319724
      245.500      333969.      296703.   -0.0447392
      248.500      336178.      296703.   -0.0155681
      251.500      337817.      296703.   -0.0163815
      254.500      327579.      296703.   -0.0041116
      257.500      328129.      296703.    0.0063738
      260.500      328678.      296703.    0.0132961
      263.500      324716.      296703.    0.0215956
      266.500      317001.      296703.    0.0178963
      269.500      317089.      296703.    0.0202913
      272.500      318093.      296703.    0.0287393
      275.500      310929.      296703.    0.0189434
      278.500      306110.      296703.    0.0285503
      281.500      301855.      296703.    0.0205725
      284.500      296565.      296703.    0.0227697
      287.500      286016.      296703.   -0.0123248
      290.500      291472.      296703.   -0.0005172
      293.500      284771.      296703.   -0.0153403
      296.500      281051.      296703.   -0.0158330
      299.500      265513.      296703.   -0.0427606
      302.500      262762.      296703.   -0.0465373
      305.500      248126.      296703.   -0.0654109
      308.500      244472.      296703.   -0.1187175
      311.500      246819.      296703.   -0.1010930
      314.500      245520.      296703.   -0.0846855
      317.500      245250.      296703.   -0.0670536
      320.500      247260.      296703.   -0.0456623
      323.500      244537.      296703.   -0.0267915
      326.500      255104.      296703.    0.0220370
      329.500      261998.      296703.    0.0454209
      332.500      257259.      296703.    0.0552342
      335.500      259591.      296703.    0.0695251
      338.500      260056.      296703.    0.0782649
      341.500      260270.      296703.    0.0764600
      344.500      258680.      296703.    0.0741421
      347.500      254549.      296703.    0.0551241
      350.500      241366.      296703.    0.0172084
      353.500      248886.      296703.    0.0300652
      356.500      240682.      296703.    0.0204489
      359.500      237898.      296703.    0.0158883
       3     120      9.85000      18      1.00000      0.00000
      2.50000      245206.      311024.   -0.0059531
      5.50000      240321.      311024.   -0.0003162
      8.50000      243848.      311024.    0.0052482
      11.5000      232509.      311024.    0.0031315
      14.5000      234732.      311024.    0.0465810
      17.5000      237241.      311024.    0.0532157
      20.5000      232078.      311024.    0.0247543
      23.5000      230100.      311024.   -0.0161592
      26.5000      227410.      311024.   -0.0442519
      29.5000      216113.      311024.   -0.0675302
      32.5000      216113.      311024.   -0.0823658
      35.5000      210290.      311024.   -0.1211064
      38.5000      207504.      311024.   -0.1385609
      41.5000      202043.      311024.   -0.1335274
      44.5000      200203.      311024.   -0.1223154
      47.5000      206184.      311024.   -0.1456212
      50.5000      196788.      311024.   -0.1586510
      53.5000      203232.      311024.   -0.1067991
      56.5000      206892.      311024.   -0.0901493
      59.5000      212218.      311024.   -0.0447554
      62.5000      219617.      311024.   -0.0184842
      65.5000      234077.      311024.    0.0108593
      68.5000      236493.      311024.   -0.0164405
      71.5000      256037.      311024.    0.0313623
      74.5000      267364.      311024.    0.0094557
      77.5000      275124.      311024.    0.0655193
      80.5000      286214.      311024.    0.0671288
      83.5000      289526.      311024.    0.0334854
      86.5000      298826.      311024.    0.0805645
      89.5000      300780.      311024.    0.0732833
      92.5000      309748.      311024.    0.0977525
      95.5000      311457.      311024.    0.0688829
      98.5000      320868.      311024.    0.0752174
      101.500      329110.      311024.    0.0781146
      104.500      335368.      311024.    0.0989120
      107.500      322470.      311024.    0.0150905
      110.500      333516.      311024.    0.0437197
      113.500      334538.      311024.    0.0254266
      116.500      334234.      311024.    0.0305082
      119.500      331284.      311024.   -0.0148006
      122.500      324416.      311024.   -0.0591085
      125.500      325782.      311024.   -0.0704974
      128.500      313086.      311024.   -0.0733003
      131.500      312026.      311024.   -0.0694069
      134.500      305322.      311024.   -0.0944631
      137.500      346218.      311024.   -0.0340190
      140.500      359008.      311024.   -0.0152681
      143.500      359524.      311024.   -0.0076344
      146.500      413043.      311024.    0.0765416
      149.500      425746.      311024.    0.0890959
      152.500      402044.      311024.    0.0579961
      155.500      402564.      311024.    0.0741848
      158.500      402893.      311024.    0.0756510
      161.500      427072.      311024.    0.1003427
      164.500      384835.      311024.    0.0636423
      167.500      397458.      311024.    0.0626168
      170.500      405080.      311024.    0.0675986
      173.500      381979.      311024.    0.0398364
      176.500      352965.      311024.   -0.0262350
      179.500      378515.      311024.   -0.0039919
      182.500      375527.      311024.   -0.0059531
      185.500      385429.      311024.   -0.0003162
      188.500      381659.      311024.    0.0052482
      191.500      396300.      311024.    0.0031315
      194.500      424114.      311024.    0.0465810
      197.500      422935.      311024.    0.0532157
      200.500      407399.      311024.    0.0247543
      203.500      377217.      311024.   -0.0161592
      206.500      358357.      311024.   -0.0442519
      209.500      357652.      311024.   -0.0675301
      212.500      344996.      311024.   -0.0823658
      215.500      323960.      311024.   -0.1211065
      218.500      314417.      311024.   -0.1385609
      221.500      326369.      311024.   -0.1335275
      224.500      337152.      311024.   -0.1223154
      227.500      309876.      311024.   -0.1456212
      230.500      314863.      311024.   -0.1586510
      233.500      343033.      311024.   -0.1067991
      236.500      349658.      311024.   -0.0901493
      239.500      374792.      311024.   -0.0447554
      242.500      383026.      311024.   -0.0184842
      245.500      383467.      311024.    0.0108594
      248.500      361448.      311024.   -0.0164405
      251.500      368990.      311024.    0.0313623
      254.500      339831.      311024.    0.0094557
      257.500      370374.      311024.    0.0655193
      260.500      359190.      311024.    0.0671287
      263.500      334702.      311024.    0.0334855
      266.500      357780.      311024.    0.0805645
      269.500      353527.      311024.    0.0732834
      272.500      362246.      311024.    0.0977525
      275.500      344659.      311024.    0.0688829
      278.500      341798.      311024.    0.0752174
      281.500      338471.      311024.    0.0781146
      284.500      348918.      311024.    0.0989120
      287.500      313103.      311024.    0.0150905
      290.500      323883.      311024.    0.0437197
      293.500      315503.      311024.    0.0254266
      296.500      322589.      311024.    0.0305082
      299.500      301612.      311024.   -0.0148006
      302.500      284750.      311024.   -0.0591084
      305.500      280476.      311024.   -0.0704974
      308.500      269523.      311024.   -0.0733003
      311.500      273334.      311024.   -0.0694069
      314.500      264888.      311024.   -0.0944632
      317.500      266439.      311024.   -0.0340190
      320.500      266998.      311024.   -0.0152681
      323.500      270622.      311024.   -0.0076344
      326.500      276142.      311024.    0.0765416
      329.500      273258.      311024.    0.0890959
      332.500      273098.      311024.    0.0579961
      335.500      280296.      311024.    0.0741848
      338.500      279691.      311024.    0.0756510
      341.500      274746.      311024.    0.1003428
      344.500      282926.      311024.    0.0636423
      347.500      272559.      311024.    0.0626168
      350.500      268570.      311024.    0.0675986
      353.500      268109.      311024.    0.0398364
      356.500      252551.      311024.   -0.0262350
      359.500      245780.      311024.   -0.0039919
       4     120      9.85000      21      1.00000      0.00000
      2.50000      253878.      314155.    0.0105193
      5.50000      240293.      314155.   -0.0599711
      8.50000      244029.      314155.    0.0153883
      11.5000      251053.      314155.    0.0187436
      14.5000      238436.      314155.    0.0202603
      17.5000      248554.      314155.    0.0421139
      20.5000      260997.      314155.    0.0490555
      23.5000      259818.      314155.    0.0161999
      26.5000      250063.      314155.   -0.0232069
      29.5000      251533.      314155.   -0.0443570
      32.5000      221923.      314155.   -0.0787065
      35.5000      249451.      314155.   -0.0649482
      38.5000      230330.      314155.   -0.0802805
      41.5000      227147.      314155.   -0.0855108
      44.5000      232104.      314155.   -0.0909337
      47.5000      229262.      314155.   -0.0720602
      50.5000      232351.      314155.   -0.0608312
      53.5000      223661.      314155.   -0.1343900
      56.5000      244456.      314155.   -0.0306964
      59.5000      262320.      314155.    0.0369142
      62.5000      249700.      314155.   -0.0247831
      65.5000      283040.      314155.   -0.0117927
      68.5000      285272.      314155.    0.0421291
      71.5000      303356.      314155.    0.0921040
      74.5000      278744.      314155.    0.0380992
      77.5000      288235.      314155.    0.0199722
      80.5000      290002.      314155.    0.0265850
      83.5000      276085.      314155.   -0.0080493
      86.5000      296415.      314155.    0.0065294
      89.5000      302872.      314155.    0.0403749
      92.5000      298025.      314155.    0.0646517
      95.5000      326480.      314155.    0.0703848
      98.5000      328298.      314155.    0.0995467
      101.500      333989.      314155.    0.1033349
      104.500      321584.      314155.    0.0789877
      107.500      350265.      314155.    0.0946679
      110.500      370677.      314155.    0.0662011
      113.500      363699.      314155.    0.0793375
      116.500      339840.      314155.    0.0290943
      119.500      351887.      314155.    0.0105425
      122.500      347782.      314155.   -0.0011080
      125.500      354231.      314155.    0.0014420
      128.500      303299.      314155.   -0.0469259
      131.500      324486.      314155.   -0.0057352
      134.500      321921.      314155.   -0.0725593
      137.500      310253.      314155.   -0.0919966
      140.500      316629.      314155.   -0.0772492
      143.500      343488.      314155.   -0.0319561
      146.500      362227.      314155.   -0.0005896
      149.500      360554.      314155.    0.0017773
      152.500      385522.      314155.    0.0470299
      155.500      395636.      314155.    0.0490574
      158.500      371847.      314155.    0.0064078
      161.500      387091.      314155.    0.0601548
      164.500      389790.      314155.    0.0334048
      167.500      352635.      314155.   -0.0734043
      170.500      341169.      314155.   -0.0518054
      173.500      373368.      314155.   -0.0376320
      176.500      358062.      314155.   -0.0038700
      179.500      379838.      314155.   -0.0311870
      182.500      379838.      314155.    0.0105193
      185.500      346078.      314155.   -0.0599711
      188.500      396002.      314155.    0.0153883
      191.500      386784.      314155.    0.0187435
      194.500      406007.      314155.    0.0202603
      197.500      406007.      314155.    0.0421139
      200.500      391188.      314155.    0.0490555
      203.500      367304.      314155.    0.0161999
      206.500      351792.      314155.   -0.0232069
      209.500      333036.      314155.   -0.0443570
      212.500      351934.      314155.   -0.0787066
      215.500      320084.      314155.   -0.0649482
      218.500      337410.      314155.   -0.0802805
      221.500      338245.      314155.   -0.0855108
      224.500      326969.      314155.   -0.0909337
      227.500      345352.      314155.   -0.0720602
      230.500      349457.      314155.   -0.0608312
      233.500      308922.      314155.   -0.1343900
      236.500      355344.      314155.   -0.0306964
      239.500      380008.      314155.    0.0369141
      242.500      354396.      314155.   -0.0247831
      245.500      319858.      314155.   -0.0117927
      248.500      357156.      314155.    0.0421291
      251.500      370761.      314155.    0.0921040
      254.500      367014.      314155.    0.0380992
      257.500      344806.      314155.    0.0199722
      260.500      349777.      314155.    0.0265850
      263.500      345476.      314155.   -0.0080493
      266.500      334175.      314155.    0.0065294
      269.500      352511.      314155.    0.0403749
      272.500      376956.      314155.    0.0646517
      275.500      352934.      314155.    0.0703848
      278.500      373506.      314155.    0.0995467
      281.500      373506.      314155.    0.1033349
      284.500      373506.      314155.    0.0789877
      287.500      359223.      314155.    0.0946679
      290.500      326325.      314155.    0.0662011
      293.500      345046.      314155.    0.0793375
      296.500      338703.      314155.    0.0290943
      299.500      320794.      314155.    0.0105424
      302.500      320794.      314155.   -0.0011080
      305.500      320794.      314155.    0.0014420
      308.500      278476.      314155.   -0.0469259
      311.500      285496.      314155.   -0.0057352
      314.500      251153.      314155.   -0.0725593
      317.500      251926.      314155.   -0.0919965
      320.500      256194.      314155.   -0.0772492
      323.500      260483.      314155.   -0.0319562
      326.500      263713.      314155.   -0.0005896
      329.500      267041.      314155.    0.0017773
      332.500      272808.      314155.    0.0470299
      335.500      266510.      314155.    0.0490574
      338.500      261557.      314155.    0.0064078
      341.500      278751.      314155.    0.0601548
      344.500      262365.      314155.    0.0334048
      347.500      232685.      314155.   -0.0734043
      350.500      251486.      314155.   -0.0518054
      353.500      235773.      314155.   -0.0376320
      356.500      262940.      314155.   -0.0038700
      359.500      233491.      314155.   -0.0311870
       5     120      9.85000      24      1.00000      0.00000
      2.50000      190961.      278687.   -0.0593601
      5.50000      174314.      278687.   -0.0934991
      8.50000      200846.      278687.   -0.0173990
      11.5000      186095.      278687.   -0.0785509
      14.5000      186836.      278687.   -0.0877945
      17.5000      213071.      278687.    0.0034352
      20.5000      203575.      278687.   -0.0296610
      23.5000      215128.      278687.   -0.0327258
      26.5000      219324.      278687.   -0.0281025
      29.5000      219324.      278687.   -0.0173885
      32.5000      212228.      278687.   -0.0437329
      35.5000      190260.      278687.   -0.1162622
      38.5000      213723.      278687.   -0.0213449
      41.5000      188996.      278687.   -0.0740641
      44.5000      210946.      278687.   -0.0536557
      47.5000      192745.      278687.   -0.1053329
      50.5000      192745.      278687.   -0.1334585
      53.5000      205447.      278687.   -0.0698549
      56.5000      226775.      278687.   -0.0653958
      59.5000      226859.      278687.    0.0001837
      62.5000      229888.      278687.   -0.0074547
      65.5000      245757.      278687.    0.0523207
      68.5000      271209.      278687.    0.0931879
      71.5000      279730.      278687.    0.1169062
      74.5000      255687.      278687.    0.0470760
      77.5000      291062.      278687.    0.1090731
      80.5000      289855.      278687.    0.1111392
      83.5000      286527.      278687.    0.0628376
      86.5000      265060.      278687.    0.0276346
      89.5000      289188.      278687.    0.0755521
      92.5000      289514.      278687.    0.0782817
      95.5000      283257.      278687.    0.0637973
      98.5000      291993.      278687.    0.0601478
      101.500      304587.      278687.    0.1068168
      104.500      312251.      278687.    0.0795078
      107.500      289714.      278687.    0.0488927
      110.500      303669.      278687.    0.0735002
      113.500      322205.      278687.    0.0820594
      116.500      317623.      278687.    0.0474218
      119.500      296807.      278687.   -0.0432160
      122.500      318676.      278687.    0.0088858
      125.500      285351.      278687.   -0.0612780
      128.500      284782.      278687.   -0.0156655
      131.500      317024.      278687.    0.0322456
      134.500      302148.      278687.   -0.0753285
      137.500      322914.      278687.    0.0312133
      140.500      338948.      278687.    0.0422047
      143.500      312731.      278687.   -0.0151246
      146.500      310465.      278687.   -0.0005200
      149.500      311666.      278687.   -0.0699469
      152.500      314612.      278687.   -0.0159531
      155.500      314612.      278687.   -0.0262257
      158.500      359779.      278687.    0.0377650
      161.500      362894.      278687.    0.0208483
      164.500      346178.      278687.   -0.0041429
      167.500      355521.      278687.    0.0179311
      170.500      339385.      278687.   -0.0282041
      173.500      341850.      278687.   -0.0130784
      176.500      332234.      278687.   -0.0251861
      179.500      337510.      278687.   -0.0502377
      182.500      340400.      278687.   -0.0593601
      185.500      341916.      278687.   -0.0934991
      188.500      350820.      278687.   -0.0173990
      191.500      331291.      278687.   -0.0785509
      194.500      322731.      278687.   -0.0877945
      197.500      341969.      278687.    0.0034352
      200.500      333467.      278687.   -0.0296611
      203.500      312379.      278687.   -0.0327258
      206.500      308122.      278687.   -0.0281025
      209.500      314609.      278687.   -0.0173885
      212.500      307544.      278687.   -0.0437329
      215.500      292874.      278687.   -0.1162622
      218.500      319447.      278687.   -0.0213449
      221.500      322028.      278687.   -0.0740641
      224.500      302509.      278687.   -0.0536556
      227.500      296090.      278687.   -0.1053329
      230.500      278266.      278687.   -0.1334585
      233.500      301324.      278687.   -0.0698549
      236.500      274784.      278687.   -0.0653958
      239.500      317348.      278687.    0.0001837
      242.500      309550.      278687.   -0.0074547
      245.500      326910.      278687.    0.0523207
      248.500      320449.      278687.    0.0931879
      251.500      326254.      278687.    0.1169062
      254.500      316302.      278687.    0.0470760
      257.500      312556.      278687.    0.1090731
      260.500      318129.      278687.    0.1111393
      263.500      296294.      278687.    0.0628376
      266.500      302987.      278687.    0.0276346
      269.500      306879.      278687.    0.0755522
      272.500      311153.      278687.    0.0782817
      275.500      312396.      278687.    0.0637973
      278.500      304372.      278687.    0.0601478
      281.500      321211.      278687.    0.1068168
      284.500      301938.      278687.    0.0795078
      287.500      309178.      278687.    0.0488927
      290.500      312907.      278687.    0.0735002
      293.500      304529.      278687.    0.0820594
      296.500      293196.      278687.    0.0474218
      299.500      265399.      278687.   -0.0432160
      302.500      278565.      278687.    0.0088858
      305.500      270419.      278687.   -0.0612780
      308.500      260167.      278687.   -0.0156655
      311.500      258158.      278687.    0.0322456
      314.500      217071.      278687.   -0.0753285
      317.500      253803.      278687.    0.0312132
      320.500      246848.      278687.    0.0422047
      323.500      239072.      278687.   -0.0151246
      326.500      247500.      278687.   -0.0005200
      329.500      213120.      278687.   -0.0699469
      332.500      236043.      278687.   -0.0159532
      335.500      230571.      278687.   -0.0262257
      338.500      227786.      278687.    0.0377650
      341.500      217224.      278687.    0.0208483
      344.500      216604.      278687.   -0.0041429
      347.500      219479.      278687.    0.0179311
      350.500      208739.      278687.   -0.0282041
      353.500      212990.      278687.   -0.0130784
      356.500      213041.      278687.   -0.0251861
      359.500      197666.      278687.   -0.0502378
       6     120      9.85000      27      1.00000      0.00000
      2.50000      186904.      253300.   -0.0322029
      5.50000      192221.      253300.   -0.0050818
      8.50000      194104.      253300.   -0.0177804
      11.5000      186783.      253300.   -0.0541661
      14.5000      186750.      253300.   -0.0358741
      17.5000      193090.      253300.   -0.0181828
      20.5000      190417.      253300.   -0.0226482
      23.5000      184340.      253300.   -0.1328605
      26.5000      172751.      253300.   -0.1117613
      29.5000      183834.      253300.   -0.0851331
      32.5000      211775.      253300.   -0.0164111
      35.5000      205053.      253300.   -0.0278402
      38.5000      194498.      253300.   -0.0659211
      41.5000      197629.      253300.   -0.0835120
      44.5000      185180.      253300.   -0.0912579
      47.5000      206361.      253300.   -0.0680320
      50.5000      193897.      253300.   -0.1029260
      53.5000      204790.      253300.   -0.0640921
      56.5000      229233.      253300.   -0.0397886
      59.5000      214841.      253300.   -0.0492199
      62.5000      236544.      253300.   -0.0015062
      65.5000      250680.      253300.    0.0202994
      68.5000      239070.      253300.    0.0002392
      71.5000      258039.      253300.    0.0003073
      74.5000      249116.      253300.    0.0504580
      77.5000      234583.      253300.    0.0233933
      80.5000      285820.      253300.    0.1038831
      83.5000      262786.      253300.    0.0768212
      86.5000      256630.      253300.    0.0529296
      89.5000      263228.      253300.    0.0621718
      92.5000      269266.      253300.    0.0792388
      95.5000      291180.      253300.    0.1400135
      98.5000      266153.      253300.    0.0671873
      101.500      275364.      253300.    0.0392499
      104.500      263341.      253300.    0.0301441
      107.500      269712.      253300.    0.0376794
      110.500      278101.      253300.    0.1014883
      113.500      290300.      253300.    0.0643259
      116.500      275685.      253300.    0.0340439
      119.500      268312.      253300.   -0.0442085
      122.500      283274.      253300.    0.0484542
      125.500      275578.      253300.   -0.0419143
      128.500      283221.      253300.   -0.0058640
      131.500      298238.      253300.   -0.0102752
      134.500      297680.      253300.    0.0114414
      137.500      294037.      253300.   -0.0588791
      140.500      301560.      253300.   -0.0648885
      143.500      298584.      253300.   -0.0017180
      146.500      301889.      253300.    0.0069036
      149.500      301062.      253300.   -0.0188842
      152.500      306114.      253300.   -0.0275986
      155.500      322628.      253300.    0.0490524
      158.500      347287.      253300.    0.0507242
      161.500      327892.      253300.    0.0052254
      164.500      347619.      253300.    0.0938520
      167.500      318053.      253300.    0.0490543
      170.500      322748.      253300.    0.0004678
      173.500      328160.      253300.    0.0107159
      176.500      338038.      253300.    0.0268230
      179.500      334617.      253300.    0.0445475
      182.500      308957.      253300.   -0.0322029
      185.500      315845.      253300.   -0.0050818
      188.500      303906.      253300.   -0.0177804
      191.500      291425.      253300.   -0.0541661
      194.500      300989.      253300.   -0.0358741
      197.500      300989.      253300.   -0.0181828
      200.500      300989.      253300.   -0.0226482
      203.500      244139.      253300.   -0.1328605
      206.500      272015.      253300.   -0.1117613
      209.500      271026.      253300.   -0.0851331
      212.500      271026.      253300.   -0.0164110
      215.500      273271.      253300.   -0.0278402
      218.500      265604.      253300.   -0.0659211
      221.500      251170.      253300.   -0.0835120
      224.500      263226.      253300.   -0.0912579
      227.500      248254.      253300.   -0.0680320
      230.500      245253.      253300.   -0.1029260
      233.500      252897.      253300.   -0.0640921
      236.500      235904.      253300.   -0.0397886
      239.500      249334.      253300.   -0.0492199
      242.500      249334.      253300.   -0.0015062
      245.500      245155.      253300.    0.0202994
      248.500      249403.      253300.    0.0002392
      251.500      228959.      253300.    0.0003074
      254.500      266719.      253300.    0.0504580
      257.500      270070.      253300.    0.0233933
      260.500      257343.      253300.    0.1038831
      263.500      269909.      253300.    0.0768212
      266.500      265904.      253300.    0.0529296
      269.500      265556.      253300.    0.0621718
      272.500      269883.      253300.    0.0792388
      275.500      280610.      253300.    0.1400135
      278.500      270714.      253300.    0.0671873
      281.500      250700.      253300.    0.0392499
      284.500      259217.      253300.    0.0301441
      287.500      259217.      253300.    0.0376794
      290.500      284238.      253300.    0.1014883
      293.500      258810.      253300.    0.0643259
      296.500      258810.      253300.    0.0340438
      299.500      230674.      253300.   -0.0442085
      302.500      263838.      253300.    0.0484542
      305.500      230750.      253300.   -0.0419144
      308.500      239872.      253300.   -0.0058640
      311.500      225654.      253300.   -0.0102752
      314.500      234373.      253300.    0.0114413
      317.500      204628.      253300.   -0.0588790
      320.500      195449.      253300.   -0.0648885
      323.500      223749.      253300.   -0.0017180
      326.500      223749.      253300.    0.0069036
      329.500      211839.      253300.   -0.0188843
      332.500      203273.      253300.   -0.0275986
      335.500      223093.      253300.    0.0490524
      338.500      205479.      253300.    0.0507242
      341.500      198229.      253300.    0.0052254
      344.500      220511.      253300.    0.0938520
      347.500      220511.      253300.    0.0490543
      350.500      195818.      253300.    0.0004678
      353.500      195117.      253300.    0.0107159
      356.500      193803.      253300.    0.0268230
      359.500      202164.      253300.    0.0445474
       7     120      9.85000      30      1.00000      0.00000
      2.50000      373389.      585686.   -0.0600146
      5.50000      422607.      585686.   -0.0382721
      8.50000      400291.      585686.   -0.0618897
      11.5000      425923.      585686.   -0.0398727
      14.5000      435334.      585686.   -0.0295456
      17.5000      438739.      585686.   -0.0487145
      20.5000      453826.      585686.   -0.0314132
      23.5000      423448.      585686.   -0.1011049
      26.5000      474410.      585686.   -0.0248226
      29.5000      449508.      585686.   -0.0500075
      32.5000      452682.      585686.   -0.0390431
      35.5000      465736.      585686.   -0.0303797
      38.5000      447094.      585686.   -0.0216878
      41.5000      476352.      585686.   -0.0075611
      44.5000      483059.      585686.   -0.0438831
      47.5000      496955.      585686.   -0.0298621
      50.5000      518625.      585686.   -0.0531791
      53.5000      582655.      585686.    0.0342559
      56.5000      480705.      585686.   -0.0481403
      59.5000      501362.      585686.   -0.0142106
      62.5000      528913.      585686.   -0.0032513
      65.5000      560505.      585686.    0.0250909
      68.5000      593600.      585686.    0.0343020
      71.5000      596138.      585686.    0.0411843
      74.5000      611813.      585686.    0.1068977
      77.5000      579850.      585686.    0.0837914
      80.5000      639724.      585686.    0.1394249
      83.5000      676331.      585686.    0.1514605
      86.5000      671176.      585686.    0.1356091
      89.5000      678082.      585686.    0.1328682
      92.5000      598832.      585686.    0.0638569
      95.5000      617321.      585686.    0.0656579
      98.5000      662022.      585686.    0.0960995
      101.500      569645.      585686.    0.0059685
      104.500      645642.      585686.    0.0684359
      107.500      644046.      585686.    0.0687311
      110.500      604013.      585686.    0.0221145
      113.500      616754.      585686.   -0.0076139
      116.500      569123.      585686.   -0.0524331
      119.500      593656.      585686.   -0.0874069
      122.500      574112.      585686.   -0.0889097
      125.500      568451.      585686.   -0.0616190
      128.500      646424.      585686.    0.0244951
      131.500      584378.      585686.   -0.0654927
      134.500      661938.      585686.    0.0010068
      137.500      651468.      585686.   -0.0388680
      140.500      696352.      585686.    0.0182048
      143.500      697142.      585686.    0.0217119
      146.500      675906.      585686.   -0.0083552
      149.500      643777.      585686.   -0.0270549
      152.500      643777.      585686.   -0.0265281
      155.500      649270.      585686.   -0.0317976
      158.500      624960.      585686.   -0.0336211
      161.500      693790.      585686.   -0.0300420
      164.500      721676.      585686.   -0.0075037
      167.500      694852.      585686.   -0.0403750
      170.500      756015.      585686.    0.0287021
      173.500      744750.      585686.   -0.0042725
      176.500      782252.      585686.    0.0238040
      179.500      740363.      585686.   -0.0318484
      182.500      761634.      585686.   -0.0600146
      185.500      718889.      585686.   -0.0382721
      188.500      715748.      585686.   -0.0618897
      191.500      706893.      585686.   -0.0398727
      194.500      705174.      585686.   -0.0295456
      197.500      671907.      585686.   -0.0487145
      200.500      671907.      585686.   -0.0314132
      203.500      618534.      585686.   -0.1011049
      206.500      648129.      585686.   -0.0248226
      209.500      647643.      585686.   -0.0500075
      212.500      656573.      585686.   -0.0390431
      215.500      648951.      585686.   -0.0303797
      218.500      685134.      585686.   -0.0216878
      221.500      663177.      585686.   -0.0075611
      224.500      606078.      585686.   -0.0438831
      227.500      606078.      585686.   -0.0298621
      230.500      547841.      585686.   -0.0531791
      233.500      578888.      585686.    0.0342560
      236.500      605713.      585686.   -0.0481403
      239.500      623973.      585686.   -0.0142106
      242.500      604969.      585686.   -0.0032512
      245.500      603990.      585686.    0.0250909
      248.500      578270.      585686.    0.0343020
      251.500      587264.      585686.    0.0411843
      254.500      653739.      585686.    0.1068976
      257.500      665517.      585686.    0.0837914
      260.500      669394.      585686.    0.1394249
      263.500      647998.      585686.    0.1514605
      266.500      639621.      585686.    0.1356091
      269.500      634311.      585686.    0.1328682
      272.500      639801.      585686.    0.0638569
      275.500      627652.      585686.    0.0656579
      278.500      623930.      585686.    0.0960995
      281.500      614032.      585686.    0.0059685
      284.500      618681.      585686.    0.0684359
      287.500      625856.      585686.    0.0687311
      290.500      614232.      585686.    0.0221145
      293.500      574785.      585686.   -0.0076139
      296.500      570490.      585686.   -0.0524331
      299.500      516462.      585686.   -0.0874070
      302.500      535684.      585686.   -0.0889097
      305.500      574380.      585686.   -0.0616190
      308.500      571359.      585686.    0.0244951
      311.500      524728.      585686.   -0.0654927
      314.500      532392.      585686.    0.0010068
      317.500      497792.      585686.   -0.0388680
      320.500      521490.      585686.    0.0182048
      323.500      523288.      585686.    0.0217119
      326.500      507034.      585686.   -0.0083552
      329.500      510464.      585686.   -0.0270549
      332.500      509182.      585686.   -0.0265281
      335.500      497907.      585686.   -0.0317976
      338.500      511890.      585686.   -0.0336211
      341.500      463450.      585686.   -0.0300420
      344.500      463864.      585686.   -0.0075037
      347.500      448766.      585686.   -0.0403750
      350.500      471123.      585686.    0.0287021
      353.500      444891.      585686.   -0.0042725
      356.500      443810.      585686.    0.0238040
      359.500      417400.      585686.   -0.0318484
       8     120      9.85000      33      1.00000      0.00000
      2.50000      431731.      546084.   -0.0105828
      5.50000      446817.      546084.    0.0186515
      8.50000      401713.      546084.   -0.0525901
      11.5000      415959.      546084.   -0.0520559
      14.5000      448411.      546084.   -0.0449229
      17.5000      410972.      546084.   -0.0952795
      20.5000      420697.      546084.   -0.1095539
      23.5000      406847.      546084.   -0.1183506
      26.5000      418898.      546084.   -0.1068493
      29.5000      416090.      546084.   -0.1202388
      32.5000      449252.      546084.   -0.0495094
      35.5000      393798.      546084.   -0.1126548
      38.5000      437762.      546084.   -0.0181201
      41.5000      439392.      546084.   -0.0296365
      44.5000      465483.      546084.    0.0115991
      47.5000      441955.      546084.   -0.0308162
      50.5000      489123.      546084.    0.0101402
      53.5000      502649.      546084.    0.0297068
      56.5000      509735.      546084.    0.0305928
      59.5000      455494.      546084.   -0.0473587
      62.5000      510726.      546084.    0.0210904
      65.5000      503866.      546084.    0.0034981
      68.5000      458353.      546084.    0.0097479
      71.5000      565928.      546084.    0.0463299
      74.5000      571127.      546084.    0.0987637
      77.5000      582453.      546084.    0.1163118
      80.5000      606825.      546084.    0.1433698
      83.5000      574179.      546084.    0.0852370
      86.5000      640686.      546084.    0.1505559
      89.5000      632981.      546084.    0.1620597
      92.5000      667522.      546084.    0.1574763
      95.5000      666474.      546084.    0.1458850
      98.5000      656079.      546084.    0.1238682
      101.500      621319.      546084.    0.0706136
      104.500      659495.      546084.    0.0839529
      107.500      639679.      546084.    0.0202742
      110.500      591932.      546084.    0.0102739
      113.500      591932.      546084.   -0.0352138
      116.500      592850.      546084.   -0.0400604
      119.500      588192.      546084.   -0.0547615
      122.500      583266.      546084.   -0.0405752
      125.500      549745.      546084.   -0.1145930
      128.500      524347.      546084.    0.0469305
      131.500      541758.      546084.    0.0419821
      134.500      556036.      546084.    0.0420782
      137.500      572927.      546084.    0.0046097
      140.500      572462.      546084.    0.0001167
      143.500      557458.      546084.   -0.0126906
      146.500      551839.      546084.   -0.0242192
      149.500      538481.      546084.   -0.0364669
      152.500      585372.      546084.   -0.0493621
      155.500      528800.      546084.   -0.0676750
      158.500      539058.      546084.   -0.0901590
      161.500      557467.      546084.   -0.0808130
      164.500      577629.      546084.   -0.0671067
      167.500      608682.      546084.   -0.0295106
      170.500      627355.      546084.   -0.0028807
      173.500      660238.      546084.    0.0056262
      176.500      681837.      546084.    0.0270974
      179.500      637185.      546084.   -0.0145818
      182.500      639082.      546084.   -0.0105828
      185.500      655033.      546084.    0.0186515
      188.500      627979.      546084.   -0.0525901
      191.500      609519.      546084.   -0.0520559
      194.500      574418.      546084.   -0.0449229
      197.500      562882.      546084.   -0.0952795
      200.500      532086.      546084.   -0.1095540
      203.500      540199.      546084.   -0.1183506
      206.500      538410.      546084.   -0.1068493
      209.500      526096.      546084.   -0.1202388
      212.500      569455.      546084.   -0.0495095
      215.500      566775.      546084.   -0.1126548
      218.500      625327.      546084.   -0.0181201
      221.500      610051.      546084.   -0.0296365
      224.500      627535.      546084.    0.0115991
      227.500      607964.      546084.   -0.0308161
      230.500      598638.      546084.    0.0101402
      233.500      607424.      546084.    0.0297069
      236.500      602201.      546084.    0.0305928
      239.500      578881.      546084.   -0.0473587
      242.500      595730.      546084.    0.0210904
      245.500      586486.      546084.    0.0034981
      248.500      651488.      546084.    0.0097478
      251.500      571795.      546084.    0.0463299
      254.500      632103.      546084.    0.0987637
      257.500      644559.      546084.    0.1163118
      260.500      654008.      546084.    0.1433698
      263.500      627858.      546084.    0.0852369
      266.500      637434.      546084.    0.1505559
      269.500      664726.      546084.    0.1620597
      272.500      630803.      546084.    0.1574763
      275.500      625783.      546084.    0.1458850
      278.500      618263.      546084.    0.1238682
      281.500      598899.      546084.    0.0706136
      284.500      585064.      546084.    0.0839530
      287.500      540566.      546084.    0.0202742
      290.500      577960.      546084.    0.0102738
      293.500      535143.      546084.   -0.0352138
      296.500      535308.      546084.   -0.0400604
      299.500      529494.      546084.   -0.0547615
      302.500      553930.      546084.   -0.0405752
      305.500      507670.      546084.   -0.1145930
      308.500      552033.      546084.    0.0469305
      311.500      535065.      546084.    0.0419821
      314.500      526218.      546084.    0.0420782
      317.500      477016.      546084.    0.0046097
      320.500      477016.      546084.    0.0001167
      323.500      481117.      546084.   -0.0126905
      326.500      477348.      546084.   -0.0242192
      329.500      478990.      546084.   -0.0364669
      332.500      428547.      546084.   -0.0493621
      335.500      459763.      546084.   -0.0676750
      338.500      430830.      546084.   -0.0901590
      341.500      425851.      546084.   -0.0808130
      344.500      423644.      546084.   -0.0671067
      347.500      435390.      546084.   -0.0295106
      350.500      446462.      546084.   -0.0028807
      353.500      429596.      546084.    0.0056262
      356.500      433593.      546084.    0.0270974
      359.500      429257.      546084.   -0.0145818
       9     120      9.85000      36      1.00000      0.00000
      2.50000      326702.      459954.   -0.0812454
      5.50000      334134.      459954.   -0.0703327
      8.50000      333356.      459954.   -0.0770992
      11.5000      326842.      459954.   -0.0970234
      14.5000      324989.      459954.   -0.1074069
      17.5000      314664.      459954.   -0.1371424
      20.5000      302409.      459954.   -0.1608122
      23.5000      312524.      459954.   -0.1264264
      26.5000      328717.      459954.   -0.0713981
      29.5000      343873.      459954.   -0.0369529
      32.5000      360129.      459954.    0.0145595
      35.5000      367475.      459954.    0.0102806
      38.5000      375982.      459954.    0.0365480
      41.5000      393720.      459954.    0.0887561
      44.5000      413185.      459954.    0.0987363
      47.5000      411942.      459954.    0.0659075
      50.5000      414006.      459954.    0.0573523
      53.5000      408569.      459954.    0.0263304
      56.5000      418534.      459954.    0.0335920
      59.5000      409981.      459954.    0.0026201
      62.5000      408757.      459954.    0.0373183
      65.5000      407034.      459954.    0.0284697
      68.5000      407297.      459954.    0.0236768
      71.5000      417209.      459954.    0.0321210
      74.5000      443845.      459954.    0.0535164
      77.5000      447165.      459954.    0.0490481
      80.5000      453434.      459954.    0.0506086
      83.5000      478182.      459954.    0.0740739
      86.5000      493469.      459954.    0.0874328
      89.5000      512278.      459954.    0.0980368
      92.5000      520196.      459954.    0.0798383
      95.5000      531547.      459954.    0.0578389
      98.5000      529380.      459954.    0.0392714
      101.500      516671.      459954.    0.0370549
      104.500      515868.      459954.    0.0364830
      107.500      515390.      459954.    0.0239680
      110.500      506624.      459954.    0.0062453
      113.500      505020.      459954.   -0.0090252
      116.500      514499.      459954.   -0.0071523
      119.500      508902.      459954.   -0.0276609
      122.500      516689.      459954.   -0.0157531
      125.500      511124.      459954.   -0.0299279
      128.500      511218.      459954.    0.0611978
      131.500      534326.      459954.    0.0907893
      134.500      554948.      459954.    0.1060394
      137.500      563655.      459954.    0.0999818
      140.500      557898.      459954.    0.0796448
      143.500      551446.      459954.    0.0553583
      146.500      543277.      459954.    0.0401107
      149.500      537034.      459954.    0.0229155
      152.500      518378.      459954.   -0.0089716
      155.500      481109.      459954.   -0.0771225
      158.500      467452.      459954.   -0.1035034
      161.500      469542.      459954.   -0.1260805
      164.500      469542.      459954.   -0.1195705
      167.500      509086.      459954.   -0.0785748
      170.500      525791.      459954.   -0.0608660
      173.500      517453.      459954.   -0.0714143
      176.500      521204.      459954.   -0.0659277
      179.500      516724.      459954.   -0.0854772
      182.500      517962.      459954.   -0.0812454
      185.500      517535.      459954.   -0.0703327
      188.500      509980.      459954.   -0.0770992
      191.500      496686.      459954.   -0.0970234
      194.500      487007.      459954.   -0.1074069
      197.500      469004.      459954.   -0.1371424
      200.500      460494.      459954.   -0.1608122
      203.500      481829.      459954.   -0.1264264
      206.500      516465.      459954.   -0.0713981
      209.500      530731.      459954.   -0.0369529
      212.500      561681.      459954.    0.0145595
      215.500      546467.      459954.    0.0102806
      218.500      562111.      459954.    0.0365480
      221.500      592247.      459954.    0.0887561
      224.500      576276.      459954.    0.0987363
      227.500      544795.      459954.    0.0659075
      230.500      534418.      459954.    0.0573523
      233.500      511334.      459954.    0.0263304
      236.500      507549.      459954.    0.0335920
      239.500      489306.      459954.    0.0026201
      242.500      528027.      459954.    0.0373183
      245.500      523555.      459954.    0.0284697
      248.500      520875.      459954.    0.0236768
      251.500      519956.      459954.    0.0321210
      254.500      512706.      459954.    0.0535164
      257.500      508019.      459954.    0.0490481
      260.500      506156.      459954.    0.0506086
      263.500      505477.      459954.    0.0740739
      266.500      506225.      459954.    0.0874328
      269.500      501359.      459954.    0.0980368
      272.500      481466.      459954.    0.0798383
      275.500      455373.      459954.    0.0578389
      278.500      446206.      459954.    0.0392714
      281.500      461749.      459954.    0.0370549
      284.500      467318.      459954.    0.0364830
      287.500      461818.      459954.    0.0239680
      290.500      458806.      459954.    0.0062453
      293.500      451739.      459954.   -0.0090252
      296.500      450715.      459954.   -0.0071523
      299.500      442402.      459954.   -0.0276609
      302.500      451576.      459954.   -0.0157530
      305.500      448440.      459954.   -0.0299279
      308.500      453103.      459954.    0.0611978
      311.500      459296.      459954.    0.0907893
      314.500      455602.      459954.    0.1060394
      317.500      444114.      459954.    0.0999817
      320.500      432485.      459954.    0.0796448
      323.500      418021.      459954.    0.0553583
      326.500      411962.      459954.    0.0401107
      329.500      402668.      459954.    0.0229156
      332.500      390988.      459954.   -0.0089716
      335.500      364605.      459954.   -0.0771225
      338.500      353303.      459954.   -0.1035034
      341.500      333500.      459954.   -0.1260805
      344.500      337620.      459954.   -0.1195705
      347.500      339788.      459954.   -0.0785748
      350.500      340475.      459954.   -0.0608660
      353.500      337389.      459954.   -0.0714143
      356.500      337892.      459954.   -0.0659277
      359.500      325376.      459954.   -0.0854772
      10     120      9.85000      39      1.00000      0.00000
      2.50000      304676.      432720.   -0.0946140
      5.50000      307673.      432720.   -0.0836478
      8.50000      319860.      432720.   -0.0486007
      11.5000      315508.      432720.   -0.0657390
      14.5000      309331.      432720.   -0.0930514
      17.5000      284937.      432720.   -0.1638100
      20.5000      289701.      432720.   -0.1443061
      23.5000      289982.      432720.   -0.1070778
      26.5000      307019.      432720.   -0.0549613
      29.5000      323788.      432720.   -0.0285918
      32.5000      333563.      432720.    0.0100765
      35.5000      350302.      432720.    0.0597931
      38.5000      346819.      432720.    0.0350403
      41.5000      349763.      432720.    0.0394064
      44.5000      363150.      432720.    0.0446315
      47.5000      370130.      432720.    0.0389185
      50.5000      368552.      432720.    0.0381787
      53.5000      367692.      432720.    0.0213219
      56.5000      376008.      432720.    0.0360390
      59.5000      365583.      432720.    0.0439043
      62.5000      373319.      432720.    0.0874889
      65.5000      375211.      432720.    0.0780189
      68.5000      384593.      432720.    0.0747674
      71.5000      386552.      432720.    0.0508762
      74.5000      388870.      432720.    0.0433462
      77.5000      388870.      432720.    0.0295164
      80.5000      388870.      432720.    0.0197061
      83.5000      388870.      432720.   -0.0034322
      86.5000      388870.      432720.   -0.0324704
      89.5000      401060.      432720.   -0.0295844
      92.5000      400933.      432720.   -0.0348308
      95.5000      409616.      432720.   -0.0107067
      98.5000      427835.      432720.    0.0096156
      101.500      435091.      432720.    0.0344753
      104.500      446560.      432720.    0.0404754
      107.500      458578.      432720.    0.0404810
      110.500      479440.      432720.    0.0460415
      113.500      505708.      432720.    0.0644050
      116.500      506416.      432720.    0.0481672
      119.500      485909.      432720.    0.0246504
      122.500      483330.      432720.    0.0136237
      125.500      482538.      432720.    0.0080445
      128.500      508206.      432720.    0.0527941
      131.500      522374.      432720.    0.0573319
      134.500      531735.      432720.    0.0677471
      137.500      546680.      432720.    0.0779222
      140.500      559828.      432720.    0.0996450
      143.500      561694.      432720.    0.0830903
      146.500      569451.      432720.    0.0801291
      149.500      548637.      432720.    0.0473068
      152.500      524348.      432720.    0.0183585
      155.500      485592.      432720.   -0.0460906
      158.500      461080.      432720.   -0.1011756
      161.500      458162.      432720.   -0.1123813
      164.500      481790.      432720.   -0.0826684
      167.500      497554.      432720.   -0.0519155
      170.500      502217.      432720.   -0.0484904
      173.500      484398.      432720.   -0.0795793
      176.500      486832.      432720.   -0.0820774
      179.500      479733.      432720.   -0.1026062
      182.500      485811.      432720.   -0.0946139
      185.500      490304.      432720.   -0.0836478
      188.500      505922.      432720.   -0.0486007
      191.500      492264.      432720.   -0.0657390
      194.500      470973.      432720.   -0.0930514
      197.500      432694.      432720.   -0.1638100
      200.500      443824.      432720.   -0.1443061
      203.500      480207.      432720.   -0.1070778
      206.500      506269.      432720.   -0.0549613
      209.500      506269.      432720.   -0.0285918
      212.500      529638.      432720.    0.0100765
      215.500      553854.      432720.    0.0597931
      218.500      532807.      432720.    0.0350403
      221.500      532024.      432720.    0.0394064
      224.500      517129.      432720.    0.0446315
      227.500      501179.      432720.    0.0389185
      230.500      502906.      432720.    0.0381787
      233.500      487954.      432720.    0.0213219
      236.500      491562.      432720.    0.0360390
      239.500      514474.      432720.    0.0439043
      242.500      547073.      432720.    0.0874889
      245.500      536539.      432720.    0.0780189
      248.500      522605.      432720.    0.0747674
      251.500      499319.      432720.    0.0508762
      254.500      491476.      432720.    0.0433462
      257.500      480975.      432720.    0.0295164
      260.500      474484.      432720.    0.0197061
      263.500      456079.      432720.   -0.0034322
      266.500      432769.      432720.   -0.0324704
      269.500      425058.      432720.   -0.0295844
      272.500      424078.      432720.   -0.0348308
      275.500      439748.      432720.   -0.0107067
      278.500      442445.      432720.    0.0096156
      281.500      460612.      432720.    0.0344753
      284.500      458535.      432720.    0.0404754
      287.500      451338.      432720.    0.0404810
      290.500      441332.      432720.    0.0460415
      293.500      438135.      432720.    0.0644051
      296.500      429322.      432720.    0.0481671
      299.500      432294.      432720.    0.0246504
      302.500      430102.      432720.    0.0136238
      305.500      430756.      432720.    0.0080445
      308.500      421066.      432720.    0.0527941
      311.500      413209.      432720.    0.0573319
      314.500      413665.      432720.    0.0677471
      317.500      409433.      432720.    0.0779222
      320.500      415306.      432720.    0.0996450
      323.500      400407.      432720.    0.0830903
      326.500      391399.      432720.    0.0801291
      329.500      380861.      432720.    0.0473068
      332.500      375488.      432720.    0.0183585
      335.500      354175.      432720.   -0.0460906
      338.500      329737.      432720.   -0.1011756
      341.500      322119.      432720.   -0.1123813
      344.500      325596.      432720.   -0.0826684
      347.500      335074.      432720.   -0.0519156
      350.500      332620.      432720.   -0.0484904
      353.500      321002.      432720.   -0.0795792
      356.500      315956.      432720.   -0.0820774
      359.500      304762.      432720.   -0.1026062
      11     120      9.85000      42      1.00000      0.00000
      2.50000      279900.      368331.   -0.0474628
      5.50000      270925.      368331.   -0.0687368
      8.50000      280764.      368331.   -0.0526098
      11.5000      280035.      368331.   -0.0596348
      14.5000      282107.      368331.   -0.0739030
      17.5000      272796.      368331.   -0.1061813
      20.5000      266897.      368331.   -0.1117185
      23.5000      266882.      368331.   -0.0826823
      26.5000      283046.      368331.   -0.0337817
      29.5000      282731.      368331.   -0.0280112
      32.5000      293780.      368331.    0.0048532
      35.5000      299822.      368331.   -0.0016292
      38.5000      308068.      368331.   -0.0126846
      41.5000      312720.      368331.   -0.0137675
      44.5000      315758.      368331.   -0.0060524
      47.5000      314348.      368331.   -0.0104495
      50.5000      327057.      368331.    0.0062185
      53.5000      333646.      368331.   -0.0029573
      56.5000      346623.      368331.    0.0155120
      59.5000      344017.      368331.    0.0446342
      62.5000      345699.      368331.    0.0554081
      65.5000      348710.      368331.    0.0660643
      68.5000      353501.      368331.    0.0697968
      71.5000      368875.      368331.    0.0880784
      74.5000      389163.      368331.    0.1153768
      77.5000      404333.      368331.    0.1323571
      80.5000      403851.      368331.    0.1180369
      83.5000      375573.      368331.    0.0148764
      86.5000      363980.      368331.   -0.0136915
      89.5000      354684.      368331.   -0.0429477
      92.5000      359324.      368331.   -0.0333196
      95.5000      372091.      368331.   -0.0039068
      98.5000      410829.      368331.    0.0460765
      101.500      428525.      368331.    0.0805288
      104.500      439584.      368331.    0.0907008
      107.500      441338.      368331.    0.0625191
      110.500      453655.      368331.    0.0426764
      113.500      470443.      368331.    0.0509174
      116.500      483594.      368331.    0.0393908
      119.500      462984.      368331.    0.0076016
      122.500      451471.      368331.   -0.0189967
      125.500      444267.      368331.   -0.0390309
      128.500      424677.      368331.    0.0409151
      131.500      431854.      368331.    0.0522451
      134.500      426134.      368331.    0.0393272
      137.500      418447.      368331.    0.0079294
      140.500      440253.      368331.    0.0270832
      143.500      456544.      368331.    0.0369896
      146.500      458286.      368331.    0.0374798
      149.500      447141.      368331.    0.0250358
      152.500      444205.      368331.    0.0017814
      155.500      415127.      368331.   -0.0504860
      158.500      381632.      368331.   -0.1000745
      161.500      372093.      368331.   -0.1167214
      164.500      384989.      368331.   -0.0749561
      167.500      406949.      368331.   -0.0528949
      170.500      410089.      368331.   -0.0458553
      173.500      415230.      368331.   -0.0455870
      176.500      412662.      368331.   -0.0482824
      179.500      412284.      368331.   -0.0562088
      182.500      410488.      368331.   -0.0474628
      185.500      404292.      368331.   -0.0687368
      188.500      403069.      368331.   -0.0526098
      191.500      397401.      368331.   -0.0596348
      194.500      381763.      368331.   -0.0739030
      197.500      367272.      368331.   -0.1061813
      200.500      370609.      368331.   -0.1117185
      203.500      394726.      368331.   -0.0826823
      206.500      412898.      368331.   -0.0337817
      209.500      418101.      368331.   -0.0280112
      212.500      430302.      368331.    0.0048532
      215.500      417076.      368331.   -0.0016292
      218.500      397547.      368331.   -0.0126846
      221.500      391388.      368331.   -0.0137675
      224.500      394778.      368331.   -0.0060524
      227.500      394298.      368331.   -0.0104495
      230.500      393006.      368331.    0.0062185
      233.500      379232.      368331.   -0.0029573
      236.500      380020.      368331.    0.0155120
      239.500      408310.      368331.    0.0446342
      242.500      416940.      368331.    0.0554081
      245.500      424000.      368331.    0.0660643
      248.500      423831.      368331.    0.0697968
      251.500      423345.      368331.    0.0880785
      254.500      424983.      368331.    0.1153768
      257.500      424983.      368331.    0.1323571
      260.500      418317.      368331.    0.1180369
      263.500      373973.      368331.    0.0148764
      266.500      367816.      368331.   -0.0136915
      269.500      358703.      368331.   -0.0429477
      272.500      364579.      368331.   -0.0333196
      275.500      377358.      368331.   -0.0039068
      278.500      382214.      368331.    0.0460765
      281.500      395302.      368331.    0.0805288
      284.500      397313.      368331.    0.0907008
      287.500      380584.      368331.    0.0625191
      290.500      361651.      368331.    0.0426764
      293.500      359122.      368331.    0.0509174
      296.500      346478.      368331.    0.0393908
      299.500      344859.      368331.    0.0076016
      302.500      339728.      368331.   -0.0189967
      305.500      335704.      368331.   -0.0390309
      308.500      334994.      368331.    0.0409151
      311.500      336802.      368331.    0.0522451
      314.500      333003.      368331.    0.0393271
      317.500      318728.      368331.    0.0079294
      320.500      313870.      368331.    0.0270832
      323.500      307460.      368331.    0.0369896
      326.500      306101.      368331.    0.0374798
      329.500      306134.      368331.    0.0250358
      332.500      293307.      368331.    0.0017814
      335.500      281685.      368331.   -0.0504860
      338.500      274817.      368331.   -0.1000745
      341.500      270754.      368331.   -0.1167214
      344.500      286075.      368331.   -0.0749562
      347.500      283002.      368331.   -0.0528949
      350.500      284202.      368331.   -0.0458553
      353.500      279947.      368331.   -0.0455870
      356.500      279355.      368331.   -0.0482824
      359.500      274148.      368331.   -0.0562088
      12     120      9.85000      45      1.00000      0.00000
      2.50000      279101.      347258.    0.0511401
      5.50000      280428.      347258.    0.0307438
      8.50000      266383.      347258.   -0.0280306
      11.5000      249928.      347258.   -0.0801740
      14.5000      246218.      347258.   -0.0996925
      17.5000      244890.      347258.   -0.1157893
      20.5000      243339.      347258.   -0.0949734
      23.5000      242084.      347258.   -0.0948746
      26.5000      245599.      347258.   -0.0678537
      29.5000      260033.      347258.   -0.0340959
      32.5000      260927.      347258.   -0.0228167
      35.5000      264170.      347258.   -0.0459480
      38.5000      260614.      347258.   -0.0573838
      41.5000      270026.      347258.   -0.0474714
      44.5000      270453.      347258.   -0.0490901
      47.5000      295677.      347258.    0.0078987
      50.5000      304917.      347258.    0.0418498
      53.5000      293734.      347258.    0.0101491
      56.5000      303111.      347258.    0.0254383
      59.5000      302704.      347258.    0.0262042
      62.5000      304935.      347258.    0.0462817
      65.5000      320140.      347258.    0.0717193
      68.5000      324685.      347258.    0.0728105
      71.5000      329967.      347258.    0.0738369
      74.5000      348916.      347258.    0.1119627
      77.5000      367488.      347258.    0.1234842
      80.5000      353297.      347258.    0.0756146
      83.5000      343143.      347258.    0.0449896
      86.5000      340433.      347258.    0.0415052
      89.5000      345843.      347258.    0.0423590
      92.5000      340391.      347258.    0.0291092
      95.5000      339419.      347258.    0.0048195
      98.5000      359862.      347258.    0.0226925
      101.500      395958.      347258.    0.0742926
      104.500      398393.      347258.    0.0816644
      107.500      388849.      347258.    0.0389079
      110.500      380944.      347258.    0.0103739
      113.500      387395.      347258.    0.0082052
      116.500      386169.      347258.   -0.0096639
      119.500      378132.      347258.   -0.0431757
      122.500      367037.      347258.   -0.0660889
      125.500      367924.      347258.   -0.0736679
      128.500      386075.      347258.    0.0067636
      131.500      399172.      347258.    0.0222574
      134.500      413186.      347258.    0.0295952
      137.500      394155.      347258.   -0.0129677
      140.500      389095.      347258.   -0.0284338
      143.500      405907.      347258.   -0.0120094
      146.500      431227.      347258.    0.0047595
      149.500      440011.      347258.    0.0369215
      152.500      415027.      347258.   -0.0050847
      155.500      411497.      347258.   -0.0209017
      158.500      387745.      347258.   -0.0556053
      161.500      381008.      347258.   -0.0854148
      164.500      387884.      347258.   -0.0667004
      167.500      390784.      347258.   -0.0775306
      170.500      415599.      347258.   -0.0339778
      173.500      450179.      347258.    0.0166295
      176.500      450179.      347258.    0.0443877
      179.500      461651.      347258.    0.0688879
      182.500      456056.      347258.    0.0511401
      185.500      435192.      347258.    0.0307438
      188.500      405715.      347258.   -0.0280306
      191.500      385638.      347258.   -0.0801740
      194.500      373606.      347258.   -0.0996925
      197.500      360983.      347258.   -0.1157894
      200.500      379200.      347258.   -0.0949734
      203.500      380004.      347258.   -0.0948746
      206.500      395794.      347258.   -0.0678537
      209.500      400956.      347258.   -0.0340959
      212.500      407966.      347258.   -0.0228167
      215.500      383950.      347258.   -0.0459480
      218.500      379518.      347258.   -0.0573837
      221.500      373756.      347258.   -0.0474714
      224.500      371896.      347258.   -0.0490901
      227.500      381841.      347258.    0.0078987
      230.500      396264.      347258.    0.0418498
      233.500      387501.      347258.    0.0101491
      236.500      387633.      347258.    0.0254382
      239.500      389863.      347258.    0.0262042
      242.500      403518.      347258.    0.0462817
      245.500      404797.      347258.    0.0717194
      248.500      401616.      347258.    0.0728105
      251.500      397811.      347258.    0.0738369
      254.500      405470.      347258.    0.1119627
      257.500      394681.      347258.    0.1234842
      260.500      378992.      347258.    0.0756146
      263.500      371117.      347258.    0.0449896
      266.500      374414.      347258.    0.0415052
      269.500      372096.      347258.    0.0423590
      272.500      371370.      347258.    0.0291092
      275.500      358314.      347258.    0.0048195
      278.500      353628.      347258.    0.0226925
      281.500      357964.      347258.    0.0742926
      284.500      364673.      347258.    0.0816644
      287.500      348450.      347258.    0.0389079
      290.500      340193.      347258.    0.0103739
      293.500      337028.      347258.    0.0082052
      296.500      330158.      347258.   -0.0096638
      299.500      318622.      347258.   -0.0431757
      302.500      316115.      347258.   -0.0660889
      305.500      314037.      347258.   -0.0736679
      308.500      322272.      347258.    0.0067636
      311.500      321349.      347258.    0.0222574
      314.500      314618.      347258.    0.0295952
      317.500      302688.      347258.   -0.0129677
      320.500      296486.      347258.   -0.0284338
      323.500      293111.      347258.   -0.0120094
      326.500      283737.      347258.    0.0047595
      329.500      295644.      347258.    0.0369215
      332.500      287852.      347258.   -0.0050847
      335.500      280027.      347258.   -0.0209017
      338.500      275437.      347258.   -0.0556053
      341.500      261754.      347258.   -0.0854148
      344.500      266546.      347258.   -0.0667004
      347.500      257182.      347258.   -0.0775306
      350.500      263752.      347258.   -0.0339779
      353.500      267628.      347258.    0.0166295
      356.500      281896.      347258.    0.0443877
      359.500      286547.      347258.    0.0688879
      13     120      9.85000      48      1.00000      0.00000
      2.50000      265108.      323422.    0.0156470
      5.50000      257389.      323422.   -0.0021652
      8.50000      260168.      323422.    0.0106130
      11.5000      242076.      323422.   -0.0349143
      14.5000      235399.      323422.   -0.0943466
      17.5000      237124.      323422.   -0.1036619
      20.5000      234538.      323422.   -0.1029797
      23.5000      237346.      323422.   -0.0904873
      26.5000      242705.      323422.   -0.0728234
      29.5000      237483.      323422.   -0.0835053
      32.5000      253357.      323422.   -0.0313060
      35.5000      243305.      323422.   -0.0714446
      38.5000      243727.      323422.   -0.0745423
      41.5000      253350.      323422.   -0.0469689
      44.5000      253380.      323422.   -0.0528980
      47.5000      259448.      323422.   -0.0449785
      50.5000      276614.      323422.   -0.0044500
      53.5000      267283.      323422.   -0.0302146
      56.5000      269919.      323422.   -0.0255611
      59.5000      279842.      323422.   -0.0088305
      62.5000      282206.      323422.    0.0142458
      65.5000      287923.      323422.    0.0302271
      68.5000      305502.      323422.    0.0527451
      71.5000      308848.      323422.    0.0537180
      74.5000      320082.      323422.    0.0962046
      77.5000      329607.      323422.    0.1094032
      80.5000      331303.      323422.    0.1042807
      83.5000      334010.      323422.    0.0955025
      86.5000      341089.      323422.    0.1062029
      89.5000      346896.      323422.    0.0983568
      92.5000      349097.      323422.    0.1077644
      95.5000      351640.      323422.    0.1074027
      98.5000      352573.      323422.    0.0867463
      101.500      354289.      323422.    0.0861988
      104.500      361174.      323422.    0.0598801
      107.500      350753.      323422.    0.0219544
      110.500      354741.      323422.    0.0070307
      113.500      364262.      323422.    0.0200451
      116.500      359099.      323422.    0.0046703
      119.500      355745.      323422.   -0.0352994
      122.500      355364.      323422.   -0.0546914
      125.500      344605.      323422.   -0.0845630
      128.500      347209.      323422.    0.0112848
      131.500      360836.      323422.    0.0294895
      134.500      349286.      323422.    0.0049597
      137.500      350922.      323422.   -0.0074776
      140.500      351159.      323422.    0.0025115
      143.500      352264.      323422.   -0.0134106
      146.500      372068.      323422.    0.0192790
      149.500      372246.      323422.   -0.0064603
      152.500      371080.      323422.   -0.0143126
      155.500      358476.      323422.   -0.0579352
      158.500      354805.      323422.   -0.0454368
      161.500      346542.      323422.   -0.0821814
      164.500      362929.      323422.   -0.0599859
      167.500      378182.      323422.   -0.0349252
      170.500      398617.      323422.    0.0073402
      173.500      407320.      323422.    0.0321163
      176.500      397219.      323422.    0.0230623
      179.500      389240.      323422.    0.0179924
      182.500      388978.      323422.    0.0156470
      185.500      385545.      323422.   -0.0021652
      188.500      390220.      323422.    0.0106130
      191.500      380925.      323422.   -0.0349143
      194.500      344721.      323422.   -0.0943466
      197.500      334399.      323422.   -0.1036619
      200.500      337965.      323422.   -0.1029797
      203.500      342714.      323422.   -0.0904873
      206.500      347757.      323422.   -0.0728234
      209.500      346813.      323422.   -0.0835053
      212.500      362878.      323422.   -0.0313060
      215.500      347025.      323422.   -0.0714445
      218.500      344076.      323422.   -0.0745423
      221.500      351123.      323422.   -0.0469689
      224.500      346974.      323422.   -0.0528980
      227.500      344891.      323422.   -0.0449785
      230.500      351848.      323422.   -0.0044500
      233.500      346512.      323422.   -0.0302146
      236.500      347367.      323422.   -0.0255610
      239.500      347620.      323422.   -0.0088304
      242.500      362433.      323422.    0.0142458
      245.500      368022.      323422.    0.0302271
      248.500      363787.      323422.    0.0527451
      251.500      362419.      323422.    0.0537181
      254.500      380737.      323422.    0.0962046
      257.500      381067.      323422.    0.1094031
      260.500      378184.      323422.    0.1042807
      263.500      371885.      323422.    0.0955025
      266.500      374222.      323422.    0.1062029
      269.500      365795.      323422.    0.0983568
      272.500      372928.      323422.    0.1077644
      275.500      373303.      323422.    0.1074027
      278.500      362147.      323422.    0.0867463
      281.500      363478.      323422.    0.0861988
      284.500      343539.      323422.    0.0598801
      287.500      332445.      323422.    0.0219544
      290.500      323002.      323422.    0.0070307
      293.500      326575.      323422.    0.0200451
      296.500      324966.      323422.    0.0046703
      299.500      306628.      323422.   -0.0352993
      302.500      298656.      323422.   -0.0546914
      305.500      292264.      323422.   -0.0845630
      308.500      297087.      323422.    0.0112848
      311.500      297385.      323422.    0.0294894
      314.500      293896.      323422.    0.0049596
      317.500      286017.      323422.   -0.0074776
      320.500      292133.      323422.    0.0025115
      323.500      282371.      323422.   -0.0134106
      326.500      285429.      323422.    0.0192790
      329.500      270804.      323422.   -0.0064603
      332.500      267268.      323422.   -0.0143126
      335.500      252390.      323422.   -0.0579351
      338.500      261774.      323422.   -0.0454368
      341.500      247290.      323422.   -0.0821814
      344.500      246947.      323422.   -0.0599859
      347.500      248993.      323422.   -0.0349253
      350.500      256565.      323422.    0.0073402
      353.500      263052.      323422.    0.0321163
      356.500      264700.      323422.    0.0230623
      359.500      266900.      323422.    0.0179924
      14     120      9.85000      51      1.00000      0.00000
      2.50000      214604.      278271.   -0.0327809
      5.50000      219595.      278271.    0.0190884
      8.50000      220388.      278271.    0.0291497
      11.5000      213716.      278271.   -0.0185572
      14.5000      200117.      278271.   -0.0728599
      17.5000      194909.      278271.   -0.1027596
      20.5000      192018.      278271.   -0.1266065
      23.5000      193310.      278271.   -0.1217077
      26.5000      194890.      278271.   -0.1121917
      29.5000      193328.      278271.   -0.1161283
      32.5000      196166.      278271.   -0.0939634
      35.5000      209104.      278271.   -0.0649413
      38.5000      213238.      278271.   -0.0575735
      41.5000      221503.      278271.   -0.0342653
      44.5000      226029.      278271.   -0.0320325
      47.5000      227391.      278271.   -0.0187936
      50.5000      232019.      278271.   -0.0161996
      53.5000      237620.      278271.    0.0024708
      56.5000      229325.      278271.   -0.0135571
      59.5000      231016.      278271.   -0.0256057
      62.5000      235046.      278271.   -0.0176859
      65.5000      235566.      278271.   -0.0221675
      68.5000      245023.      278271.   -0.0187134
      71.5000      244544.      278271.   -0.0254652
      74.5000      268126.      278271.    0.0655212
      77.5000      287849.      278271.    0.1102066
      80.5000      299821.      278271.    0.1663441
      83.5000      308630.      278271.    0.1612770
      86.5000      299558.      278271.    0.1266231
      89.5000      306628.      278271.    0.1291898
      92.5000      318612.      278271.    0.1475104
      95.5000      318702.      278271.    0.1265599
      98.5000      323732.      278271.    0.1468572
      101.500      328914.      278271.    0.1362029
      104.500      325900.      278271.    0.0945740
      107.500      302868.      278271.   -0.0028291
      110.500      299815.      278271.   -0.0213847
      113.500      301420.      278271.   -0.0428453
      116.500      307312.      278271.   -0.0385738
      119.500      306206.      278271.   -0.0495422
      122.500      300296.      278271.   -0.0501485
      125.500      311055.      278271.   -0.0386221
      128.500      305638.      278271.    0.0328613
      131.500      307926.      278271.    0.0296674
      134.500      305825.      278271.    0.0182622
      137.500      303038.      278271.    0.0074660
      140.500      315606.      278271.    0.0414999
      143.500      321642.      278271.    0.0152300
      146.500      320772.      278271.    0.0132966
      149.500      317032.      278271.   -0.0186258
      152.500      314061.      278271.   -0.0495529
      155.500      301274.      278271.   -0.0746715
      158.500      302677.      278271.   -0.0842871
      161.500      308794.      278271.   -0.0651198
      164.500      316396.      278271.   -0.0662526
      167.500      340390.      278271.   -0.0261265
      170.500      361804.      278271.    0.0326967
      173.500      356072.      278271.    0.0496356
      176.500      336811.      278271.    0.0309284
      179.500      325197.      278271.   -0.0083587
      182.500      319983.      278271.   -0.0327809
      185.500      345750.      278271.    0.0190884
      188.500      350245.      278271.    0.0291497
      191.500      327903.      278271.   -0.0185572
      194.500      311613.      278271.   -0.0728598
      197.500      299035.      278271.   -0.1027596
      200.500      287110.      278271.   -0.1266065
      203.500      287895.      278271.   -0.1217077
      206.500      291347.      278271.   -0.1121917
      209.500      290750.      278271.   -0.1161283
      212.500      300724.      278271.   -0.0939634
      215.500      300636.      278271.   -0.0649413
      218.500      299504.      278271.   -0.0575735
      221.500      302893.      278271.   -0.0342653
      224.500      298368.      278271.   -0.0320325
      227.500      305428.      278271.   -0.0187936
      230.500      301440.      278271.   -0.0161995
      233.500      306465.      278271.    0.0024708
      236.500      308563.      278271.   -0.0135571
      239.500      299996.      278271.   -0.0256057
      242.500      300942.      278271.   -0.0176858
      245.500      298968.      278271.   -0.0221674
      248.500      290924.      278271.   -0.0187134
      251.500      289265.      278271.   -0.0254652
      254.500      317458.      278271.    0.0655211
      257.500      323214.      278271.    0.1102066
      260.500      345104.      278271.    0.1663441
      263.500      335050.      278271.    0.1612770
      266.500      327690.      278271.    0.1266231
      269.500      324548.      278271.    0.1291898
      272.500      325677.      278271.    0.1475104
      275.500      316987.      278271.    0.1265599
      278.500      326670.      278271.    0.1468572
      281.500      319150.      278271.    0.1362029
      284.500      302458.      278271.    0.0945740
      287.500      273356.      278271.   -0.0028291
      290.500      269154.      278271.   -0.0213846
      293.500      259479.      278271.   -0.0428453
      296.500      260124.      278271.   -0.0385738
      299.500      258401.      278271.   -0.0495422
      302.500      265595.      278271.   -0.0501485
      305.500      266486.      278271.   -0.0386221
      308.500      261077.      278271.    0.0328613
      311.500      258429.      278271.    0.0296673
      314.500      255129.      278271.    0.0182621
      317.500      252459.      278271.    0.0074660
      320.500      259325.      278271.    0.0414999
      323.500      241855.      278271.    0.0152300
      326.500      241618.      278271.    0.0132966
      329.500      229048.      278271.   -0.0186258
      332.500      216392.      278271.   -0.0495529
      335.500      213743.      278271.   -0.0746715
      338.500      207849.      278271.   -0.0842871
      341.500      211932.      278271.   -0.0651198
      344.500      205506.      278271.   -0.0662526
      347.500      206497.      278271.   -0.0261265
      350.500      217841.      278271.    0.0326967
      353.500      228916.      278271.    0.0496356
      356.500      233069.      278271.    0.0309284
      359.500      222657.      278271.   -0.0083587
      15     120      9.85000      54      1.00000      0.00000
      2.50000      206956.      243935.    0.0319572
      5.50000      209129.      243935.    0.0597972
      8.50000      207010.      243935.    0.0570024
      11.5000      194386.      243935.   -0.0002032
      14.5000      181032.      243935.   -0.0809962
      17.5000      178812.      243935.   -0.0796724
      20.5000      185227.      243935.   -0.0677868
      23.5000      180421.      243935.   -0.1108767
      26.5000      179853.      243935.   -0.1340120
      29.5000      175963.      243935.   -0.1383308
      32.5000      180837.      243935.   -0.1056845
      35.5000      193075.      243935.   -0.0480186
      38.5000      196880.      243935.   -0.0369557
      41.5000      208479.      243935.    0.0101799
      44.5000      206145.      243935.   -0.0115763
      47.5000      202778.      243935.   -0.0184696
      50.5000      202131.      243935.    0.0029551
      53.5000      207076.      243935.    0.0018460
      56.5000      211722.      243935.    0.0223583
      59.5000      203416.      243935.   -0.0291031
      62.5000      200601.      243935.   -0.0368584
      65.5000      202818.      243935.   -0.0575528
      68.5000      205142.      243935.   -0.0341151
      71.5000      208313.      243935.   -0.0041387
      74.5000      228067.      243935.    0.0486946
      77.5000      247521.      243935.    0.1158286
      80.5000      259696.      243935.    0.1376815
      83.5000      258963.      243935.    0.1370209
      86.5000      253878.      243935.    0.1118472
      89.5000      256838.      243935.    0.1171997
      92.5000      255778.      243935.    0.1045452
      95.5000      264225.      243935.    0.1121648
      98.5000      272297.      243935.    0.1125907
      101.500      278820.      243935.    0.1185950
      104.500      272194.      243935.    0.0648361
      107.500      246318.      243935.   -0.0085404
      110.500      237680.      243935.   -0.0516152
      113.500      236984.      243935.   -0.0943836
      116.500      244240.      243935.   -0.0878754
      119.500      251194.      243935.   -0.0844259
      122.500      275248.      243935.   -0.0128422
      125.500      275600.      243935.   -0.0077221
      128.500      254972.      243935.   -0.0020290
      131.500      270625.      243935.    0.0055693
      134.500      275584.      243935.    0.0250025
      137.500      282268.      243935.    0.0411958
      140.500      287937.      243935.    0.0485222
      143.500      280383.      243935.    0.0207689
      146.500      275828.      243935.    0.0004307
      149.500      257716.      243935.   -0.0827440
      152.500      257511.      243935.   -0.0994710
      155.500      253503.      243935.   -0.0903209
      158.500      267604.      243935.   -0.0604290
      161.500      291458.      243935.    0.0037571
      164.500      272744.      243935.   -0.0704994
      167.500      288226.      243935.   -0.0194516
      170.500      312262.      243935.    0.0682845
      173.500      309337.      243935.    0.0648317
      176.500      304635.      243935.    0.0583398
      179.500      300122.      243935.    0.0422466
      182.500      297170.      243935.    0.0319572
      185.500      308974.      243935.    0.0597972
      188.500      309377.      243935.    0.0570024
      191.500      293724.      243935.   -0.0002031
      194.500      265820.      243935.   -0.0809962
      197.500      268938.      243935.   -0.0796724
      200.500      265828.      243935.   -0.0677868
      203.500      247560.      243935.   -0.1108767
      206.500      234720.      243935.   -0.1340120
      209.500      237286.      243935.   -0.1383308
      212.500      248357.      243935.   -0.1056845
      215.500      263182.      243935.   -0.0480186
      218.500      263787.      243935.   -0.0369556
      221.500      273811.      243935.    0.0101800
      224.500      264912.      243935.   -0.0115763
      227.500      265734.      243935.   -0.0184696
      230.500      278458.      243935.    0.0029551
      233.500      271495.      243935.    0.0018461
      236.500      276881.      243935.    0.0223583
      239.500      260354.      243935.   -0.0291031
      242.500      260354.      243935.   -0.0368583
      245.500      247206.      243935.   -0.0575528
      248.500      257550.      243935.   -0.0341151
      251.500      270312.      243935.   -0.0041388
      254.500      275234.      243935.    0.0486946
      257.500      288456.      243935.    0.1158285
      260.500      287180.      243935.    0.1376815
      263.500      289376.      243935.    0.1370210
      266.500      283966.      243935.    0.1118472
      269.500      285238.      243935.    0.1171998
      272.500      281888.      243935.    0.1045452
      275.500      278859.      243935.    0.1121648
      278.500      273032.      243935.    0.1125907
      281.500      271842.      243935.    0.1185950
      284.500      254591.      243935.    0.0648361
      287.500      245991.      243935.   -0.0085404
      290.500      235437.      243935.   -0.0516152
      293.500      217881.      243935.   -0.0943836
      296.500      216828.      243935.   -0.0878754
      299.500      214865.      243935.   -0.0844259
      302.500      230626.      243935.   -0.0128422
      305.500      235309.      243935.   -0.0077221
      308.500      232316.      243935.   -0.0020290
      311.500      222757.      243935.    0.0055693
      314.500      227642.      243935.    0.0250025
      317.500      229494.      243935.    0.0411958
      320.500      228164.      243935.    0.0485222
      323.500      222008.      243935.    0.0207689
      326.500      216586.      243935.    0.0004307
      329.500      194569.      243935.   -0.0827440
      332.500      187269.      243935.   -0.0994710
      335.500      193856.      243935.   -0.0903209
      338.500      195409.      243935.   -0.0604290
      341.500      204082.      243935.    0.0037571
      344.500      186378.      243935.   -0.0704994
      347.500      195684.      243935.   -0.0194516
      350.500      213813.      243935.    0.0682845
      353.500      213813.      243935.    0.0648317
      356.500      213813.      243935.    0.0583398
      359.500      209752.      243935.    0.0422466
      16     120      9.85000      57      1.00000      0.00000
      2.50000      173142.      198027.    0.0666390
      5.50000      164934.      198027.    0.0291225
      8.50000      162506.      198027.    0.0221587
      11.5000      162738.      198027.    0.0045475
      14.5000      157248.      198027.   -0.0357404
      17.5000      146416.      198027.   -0.0664140
      20.5000      151249.      198027.   -0.0445358
      23.5000      147752.      198027.   -0.0766332
      26.5000      144924.      198027.   -0.1226326
      29.5000      135918.      198027.   -0.1494862
      32.5000      144869.      198027.   -0.0997379
      35.5000      149140.      198027.   -0.0761624
      38.5000      151086.      198027.   -0.0484889
      41.5000      155120.      198027.   -0.0051641
      44.5000      158995.      198027.   -0.0190105
      47.5000      152210.      198027.   -0.0573672
      50.5000      152851.      198027.   -0.0520603
      53.5000      154096.      198027.   -0.0390135
      56.5000      158106.      198027.   -0.0393013
      59.5000      151032.      198027.   -0.0947370
      62.5000      148347.      198027.   -0.0936206
      65.5000      143911.      198027.   -0.1255618
      68.5000      154210.      198027.   -0.0680449
      71.5000      165068.      198027.   -0.0376054
      74.5000      175415.      198027.    0.0302573
      77.5000      187319.      198027.    0.0835241
      80.5000      201589.      198027.    0.1563322
      83.5000      208738.      198027.    0.1897621
      86.5000      212022.      198027.    0.1766194
      89.5000      217400.      198027.    0.1773958
      92.5000      225423.      198027.    0.1864109
      95.5000      231777.      198027.    0.1738034
      98.5000      233985.      198027.    0.1696583
      101.500      234374.      198027.    0.1505894
      104.500      218496.      198027.    0.0740927
      107.500      207029.      198027.   -0.0080106
      110.500      204167.      198027.   -0.0303905
      113.500      194942.      198027.   -0.0730640
      116.500      187688.      198027.   -0.1301117
      119.500      205069.      198027.   -0.1031064
      122.500      221934.      198027.   -0.0408985
      125.500      235474.      198027.   -0.0201626
      128.500      214141.      198027.    0.0125807
      131.500      210043.      198027.   -0.0021737
      134.500      218697.      198027.    0.0065300
      137.500      218697.      198027.    0.0311379
      140.500      232715.      198027.    0.0526327
      143.500      225658.      198027.    0.0167518
      146.500      217219.      198027.   -0.0271420
      149.500      204419.      198027.   -0.0666197
      152.500      200058.      198027.   -0.1033073
      155.500      212331.      198027.   -0.0610010
      158.500      230461.      198027.   -0.0086153
      161.500      230617.      198027.   -0.0174185
      164.500      230117.      198027.   -0.0170544
      167.500      242829.      198027.   -0.0002692
      170.500      245898.      198027.    0.0392600
      173.500      244151.      198027.    0.0486456
      176.500      252202.      198027.    0.0595865
      179.500      246844.      198027.    0.0701882
      182.500      247797.      198027.    0.0666390
      185.500      241397.      198027.    0.0291225
      188.500      240934.      198027.    0.0221587
      191.500      231597.      198027.    0.0045475
      194.500      220098.      198027.   -0.0357403
      197.500      221088.      198027.   -0.0664140
      200.500      223610.      198027.   -0.0445358
      203.500      213241.      198027.   -0.0766333
      206.500      195501.      198027.   -0.1226326
      209.500      195897.      198027.   -0.1494862
      212.500      205582.      198027.   -0.0997379
      215.500      210040.      198027.   -0.0761624
      218.500      219835.      198027.   -0.0484889
      221.500      233844.      198027.   -0.0051641
      224.500      221959.      198027.   -0.0190104
      227.500      214213.      198027.   -0.0573671
      230.500      215934.      198027.   -0.0520602
      233.500      220395.      198027.   -0.0390135
      236.500      215176.      198027.   -0.0393013
      239.500      200508.      198027.   -0.0947369
      242.500      205173.      198027.   -0.0936206
      245.500      197522.      198027.   -0.1255618
      248.500      210181.      198027.   -0.0680449
      251.500      210572.      198027.   -0.0376054
      254.500      228119.      198027.    0.0302573
      257.500      237678.      198027.    0.0835241
      260.500      253051.      198027.    0.1563321
      263.500      260358.      198027.    0.1897621
      266.500      252738.      198027.    0.1766195
      269.500      248869.      198027.    0.1773958
      272.500      245846.      198027.    0.1864109
      275.500      236126.      198027.    0.1738034
      278.500      234485.      198027.    0.1696583
      281.500      228796.      198027.    0.1505894
      284.500      216100.      198027.    0.0740927
      287.500      196694.      198027.   -0.0080106
      290.500      192680.      198027.   -0.0303905
      293.500      186392.      198027.   -0.0730640
      296.500      172660.      198027.   -0.1301117
      299.500      170359.      198027.   -0.1031064
      302.500      182369.      198027.   -0.0408985
      305.500      181865.      198027.   -0.0201626
      308.500      181470.      198027.    0.0125807
      311.500      180712.      198027.   -0.0021737
      314.500      177193.      198027.    0.0065300
      317.500      186709.      198027.    0.0311379
      320.500      183197.      198027.    0.0526327
      323.500      176593.      198027.    0.0167518
      326.500      168124.      198027.   -0.0271420
      329.500      164480.      198027.   -0.0666197
      332.500      155094.      198027.   -0.1033073
      335.500      160113.      198027.   -0.0610010
      338.500      164134.      198027.   -0.0086153
      341.500      160816.      198027.   -0.0174185
      344.500      161010.      198027.   -0.0170544
      347.500      157086.      198027.   -0.0002691
      350.500      167581.      198027.    0.0392600
      353.500      171434.      198027.    0.0486456
      356.500      168863.      198027.    0.0595865
      359.500      175503.      198027.    0.0701882
      17     120      9.85000      60      1.00000      0.00000
      2.50000      156312.      167961.    0.0556428
      5.50000      151207.      167961.    0.0340512
      8.50000      148235.      167961.    0.0308738
      11.5000      144305.      167961.   -0.0060322
      14.5000      141635.      167961.   -0.0435373
      17.5000      139392.      167961.   -0.0407566
      20.5000      147228.      167961.   -0.0008425
      23.5000      137203.      167961.   -0.0578517
      26.5000      135281.      167961.   -0.0633524
      29.5000      132084.      167961.   -0.1077580
      32.5000      139492.      167961.   -0.0932163
      35.5000      138110.      167961.   -0.0805465
      38.5000      143689.      167961.   -0.0512451
      41.5000      145127.      167961.   -0.0156630
      44.5000      145537.      167961.   -0.0101530
      47.5000      145299.      167961.   -0.0422322
      50.5000      135062.      167961.   -0.0748278
      53.5000      136179.      167961.   -0.0771061
      56.5000      135481.      167961.   -0.0682582
      59.5000      134668.      167961.   -0.0959318
      62.5000      134157.      167961.   -0.0933256
      65.5000      137570.      167961.   -0.0857317
      68.5000      138056.      167961.   -0.0679693
      71.5000      138374.      167961.   -0.0493163
      74.5000      148663.      167961.   -0.0169893
      77.5000      164867.      167961.    0.0500244
      80.5000      181522.      167961.    0.1512794
      83.5000      199055.      167961.    0.2268951
      86.5000      189044.      167961.    0.1912738
      89.5000      196735.      167961.    0.2381957
      92.5000      196164.      167961.    0.2065990
      95.5000      197331.      167961.    0.2238353
      98.5000      197136.      167961.    0.1967377
      101.500      186564.      167961.    0.1410704
      104.500      169088.      167961.    0.0221235
      107.500      160759.      167961.   -0.0250019
      110.500      158842.      167961.   -0.0333575
      113.500      154766.      167961.   -0.0691864
      116.500      152354.      167961.   -0.1123360
      119.500      150101.      167961.   -0.1232995
      122.500      166113.      167961.   -0.0777783
      125.500      172690.      167961.   -0.0552074
      128.500      174895.      167961.   -0.0316944
      131.500      169776.      167961.   -0.0520790
      134.500      182739.      167961.    0.0080445
      137.500      191046.      167961.    0.0268045
      140.500      192663.      167961.    0.0152400
      143.500      181446.      167961.   -0.0181081
      146.500      175265.      167961.   -0.0358416
      149.500      172077.      167961.   -0.0673892
      152.500      174165.      167961.   -0.0613650
      155.500      169231.      167961.   -0.0741568
      158.500      194242.      167961.    0.0202537
      161.500      194898.      167961.    0.0415638
      164.500      190051.      167961.    0.0041880
      167.500      193980.      167961.    0.0077430
      170.500      199178.      167961.    0.0268781
      173.500      200408.      167961.    0.0606296
      176.500      201943.      167961.    0.0520183
      179.500      198781.      167961.    0.0380236
      182.500      199879.      167961.    0.0556428
      185.500      197725.      167961.    0.0340513
      188.500      199827.      167961.    0.0308739
      191.500      190438.      167961.   -0.0060322
      194.500      179240.      167961.   -0.0435373
      197.500      182714.      167961.   -0.0407566
      200.500      187248.      167961.   -0.0008425
      203.500      178232.      167961.   -0.0578517
      206.500      178232.      167961.   -0.0633524
      209.500      165311.      167961.   -0.1077580
      212.500      160972.      167961.   -0.0932163
      215.500      167172.      167961.   -0.0805465
      218.500      170734.      167961.   -0.0512452
      221.500      181888.      167961.   -0.0156630
      224.500      183191.      167961.   -0.0101529
      227.500      171480.      167961.   -0.0422322
      230.500      172120.      167961.   -0.0748277
      233.500      169809.      167961.   -0.0771060
      236.500      173847.      167961.   -0.0682581
      239.500      164761.      167961.   -0.0959318
      242.500      166373.      167961.   -0.0933256
      245.500      165121.      167961.   -0.0857317
      248.500      171075.      167961.   -0.0679693
      251.500      177542.      167961.   -0.0493163
      254.500      177316.      167961.   -0.0169894
      257.500      182798.      167961.    0.0500244
      260.500      200084.      167961.    0.1512794
      263.500      207581.      167961.    0.2268951
      266.500      206950.      167961.    0.1912738
      269.500      215586.      167961.    0.2381957
      272.500      206107.      167961.    0.2065990
      275.500      211692.      167961.    0.2238353
      278.500      203584.      167961.    0.1967377
      281.500      196525.      167961.    0.1410704
      284.500      174946.      167961.    0.0221236
      287.500      168316.      167961.   -0.0250019
      290.500      168316.      167961.   -0.0333575
      293.500      161248.      167961.   -0.0691864
      296.500      150219.      167961.   -0.1123360
      299.500      149703.      167961.   -0.1232995
      302.500      151122.      167961.   -0.0777782
      305.500      153846.      167961.   -0.0552074
      308.500      152603.      167961.   -0.0316945
      311.500      151023.      167961.   -0.0520790
      314.500      158890.      167961.    0.0080445
      317.500      157710.      167961.    0.0268045
      320.500      152801.      167961.    0.0152400
      323.500      152096.      167961.   -0.0181081
      326.500      151818.      167961.   -0.0358416
      329.500      144613.      167961.   -0.0673892
      332.500      144613.      167961.   -0.0613650
      335.500      144613.      167961.   -0.0741568
      338.500      152747.      167961.    0.0202537
      341.500      158489.      167961.    0.0415638
      344.500      150790.      167961.    0.0041880
      347.500      148408.      167961.    0.0077430
      350.500      149708.      167961.    0.0268781
      353.500      158532.      167961.    0.0606296
      356.500      154367.      167961.    0.0520183
      359.500      152321.      167961.    0.0380236
      18     120      9.85000      63      1.00000      0.00000
      2.50000      127824.      138527.    0.0569370
      5.50000      130746.      138527.    0.0558079
      8.50000      130754.      138527.    0.0323005
      11.5000      123642.      138527.   -0.0101502
      14.5000      118533.      138527.   -0.0406259
      17.5000      116511.      138527.   -0.0331071
      20.5000      122292.      138527.    0.0055793
      23.5000      120352.      138527.   -0.0555704
      26.5000      111614.      138527.   -0.1023308
      29.5000      112540.      138527.   -0.0868073
      32.5000      118660.      138527.   -0.0819903
      35.5000      114656.      138527.   -0.0657080
      38.5000      119515.      138527.   -0.0334820
      41.5000      124469.      138527.    0.0026292
      44.5000      121145.      138527.   -0.0319726
      47.5000      119688.      138527.   -0.0609560
      50.5000      110381.      138527.   -0.0928246
      53.5000      118246.      138527.   -0.0548442
      56.5000      117707.      138527.   -0.0535231
      59.5000      117818.      138527.   -0.0528452
      62.5000      117938.      138527.   -0.0152519
      65.5000      116598.      138527.   -0.0663398
      68.5000      125153.      138527.   -0.0232588
      71.5000      124306.      138527.   -0.0269174
      74.5000      126066.      138527.   -0.0273092
      77.5000      130832.      138527.   -0.0118120
      80.5000      144102.      138527.    0.0696327
      83.5000      152067.      138527.    0.0984195
      86.5000      164539.      138527.    0.2108768
      89.5000      168671.      138527.    0.2177350
      92.5000      163632.      138527.    0.1955151
      95.5000      162336.      138527.    0.1735070
      98.5000      159249.      138527.    0.1126527
      101.500      144181.      138527.    0.0337331
      104.500      136491.      138527.   -0.0153995
      107.500      133770.      138527.   -0.0365096
      110.500      131647.      138527.   -0.0295077
      113.500      133536.      138527.   -0.0453824
      116.500      127508.      138527.   -0.0826480
      119.500      134932.      138527.   -0.0469159
      122.500      140397.      138527.   -0.0265531
      125.500      141825.      138527.   -0.0390209
      128.500      147353.      138527.   -0.0407875
      131.500      146881.      138527.   -0.0349301
      134.500      150521.      138527.   -0.0219419
      137.500      160108.      138527.    0.0351989
      140.500      156641.      138527.    0.0231260
      143.500      155821.      138527.    0.0096362
      146.500      146747.      138527.   -0.0344004
      149.500      147674.      138527.   -0.0302048
      152.500      149935.      138527.   -0.0216194
      155.500      153260.      138527.   -0.0095280
      158.500      158837.      138527.    0.0092050
      161.500      157955.      138527.    0.0168892
      164.500      157780.      138527.    0.0067066
      167.500      153912.      138527.   -0.0112968
      170.500      159890.      138527.    0.0342741
      173.500      161359.      138527.    0.0546555
      176.500      162601.      138527.    0.0463853
      179.500      161509.      138527.    0.0481854
      182.500      166912.      138527.    0.0569370
      185.500      162502.      138527.    0.0558079
      188.500      154844.      138527.    0.0323006
      191.500      150190.      138527.   -0.0101501
      194.500      146772.      138527.   -0.0406259
      197.500      151156.      138527.   -0.0331072
      200.500      155443.      138527.    0.0055793
      203.500      138931.      138527.   -0.0555704
      206.500      135140.      138527.   -0.1023309
      209.500      138404.      138527.   -0.0868073
      212.500      132178.      138527.   -0.0819903
      215.500      141649.      138527.   -0.0657080
      218.500      145208.      138527.   -0.0334820
      221.500      149831.      138527.    0.0026292
      224.500      143326.      138527.   -0.0319726
      227.500      136332.      138527.   -0.0609560
      230.500      137760.      138527.   -0.0928246
      233.500      139640.      138527.   -0.0548441
      236.500      140595.      138527.   -0.0535230
      239.500      140634.      138527.   -0.0528452
      242.500      151402.      138527.   -0.0152519
      245.500      138141.      138527.   -0.0663398
      248.500      141030.      138527.   -0.0232588
      251.500      141053.      138527.   -0.0269173
      254.500      139167.      138527.   -0.0273092
      257.500      138602.      138527.   -0.0118120
      260.500      147650.      138527.    0.0696327
      263.500      147650.      138527.    0.0984195
      266.500      166533.      138527.    0.2108768
      269.500      164661.      138527.    0.2177350
      272.500      164253.      138527.    0.1955151
      275.500      160070.      138527.    0.1735070
      278.500      147035.      138527.    0.1126528
      281.500      140996.      138527.    0.0337331
      284.500      135721.      138527.   -0.0153995
      287.500      133225.      138527.   -0.0365096
      290.500      137775.      138527.   -0.0295077
      293.500      132356.      138527.   -0.0453824
      296.500      128609.      138527.   -0.0826480
      299.500      132092.      138527.   -0.0469159
      302.500      133381.      138527.   -0.0265531
      305.500      129654.      138527.   -0.0390209
      308.500      124741.      138527.   -0.0407875
      311.500      126534.      138527.   -0.0349301
      314.500      126614.      138527.   -0.0219419
      317.500      133108.      138527.    0.0351989
      320.500      132667.      138527.    0.0231260
      323.500      129595.      138527.    0.0096362
      326.500      125579.      138527.   -0.0344004
      329.500      125579.      138527.   -0.0302048
      332.500      125579.      138527.   -0.0216195
      335.500      125579.      138527.   -0.0095280
      338.500      125398.      138527.    0.0092050
      341.500      127723.      138527.    0.0168892
      344.500      124930.      138527.    0.0067065
      347.500      123195.      138527.   -0.0112968
      350.500      129405.      138527.    0.0342741
      353.500      132936.      138527.    0.0546555
      356.500      129463.      138527.    0.0463853
      359.500      130416.      138527.    0.0481854
      19     120      9.85000      66      1.00000      0.00000
      2.50000      113541.      112410.    0.1027477
      5.50000      112436.      112410.    0.1095206
      8.50000      109198.      112410.    0.0592008
      11.5000      103992.      112410.   -0.0019000
      14.5000      98130.0      112410.   -0.0588842
      17.5000      101017.      112410.   -0.0370230
      20.5000      103038.      112410.   -0.0158755
      23.5000      97463.8      112410.   -0.0584004
      26.5000      95614.7      112410.   -0.0950884
      29.5000      94294.5      112410.   -0.0997996
      32.5000      98050.4      112410.   -0.0863296
      35.5000      100034.      112410.   -0.0292287
      38.5000      99305.3      112410.   -0.0353138
      41.5000      101053.      112410.   -0.0379962
      44.5000      95754.3      112410.   -0.0701188
      47.5000      95277.1      112410.   -0.0785098
      50.5000      94671.8      112410.   -0.0844154
      53.5000      93345.0      112410.   -0.0857015
      56.5000      97937.6      112410.   -0.0460017
      59.5000      104497.      112410.   -0.0041548
      62.5000      98378.7      112410.   -0.0469399
      65.5000      90536.8      112410.   -0.0922871
      68.5000      103692.      112410.   -0.0161832
      71.5000      105082.      112410.    0.0046036
      74.5000      104263.      112410.   -0.0362615
      77.5000      99923.7      112410.   -0.0623207
      80.5000      106032.      112410.   -0.0398738
      83.5000      111025.      112410.    0.0221026
      86.5000      127378.      112410.    0.1393807
      89.5000      131721.      112410.    0.1671877
      92.5000      134531.      112410.    0.1648958
      95.5000      129204.      112410.    0.1048246
      98.5000      108222.      112410.   -0.0269755
      101.500      110024.      112410.   -0.0539468
      104.500      112340.      112410.   -0.0438839
      107.500      112340.      112410.   -0.0331881
      110.500      134459.      112410.    0.0689265
      113.500      115268.      112410.   -0.0330618
      116.500      110791.      112410.   -0.0513676
      119.500      137496.      112410.    0.0620964
      122.500      120726.      112410.   -0.0049566
      125.500      120232.      112410.   -0.0145815
      128.500      119281.      112410.   -0.0037698
      131.500      115563.      112410.   -0.0312366
      134.500      121168.      112410.   -0.0040002
      137.500      122702.      112410.   -0.0017224
      140.500      126145.      112410.    0.0304206
      143.500      129718.      112410.    0.0468720
      146.500      121211.      112410.    0.0134107
      149.500      119095.      112410.   -0.0082665
      152.500      118577.      112410.    0.0018167
      155.500      116385.      112410.   -0.0126948
      158.500      121940.      112410.    0.0146204
      161.500      125252.      112410.    0.0493081
      164.500      120075.      112410.   -0.0044414
      167.500      119208.      112410.   -0.0125127
      170.500      124882.      112410.    0.0186917
      173.500      133402.      112410.    0.1144177
      176.500      140108.      112410.    0.1421039
      179.500      134974.      112410.    0.1223864
      182.500      133910.      112410.    0.1027477
      185.500      136580.      112410.    0.1095206
      188.500      127935.      112410.    0.0592008
      191.500      119038.      112410.   -0.0019000
      194.500      111948.      112410.   -0.0588842
      197.500      113639.      112410.   -0.0370230
      200.500      116178.      112410.   -0.0158755
      203.500      112300.      112410.   -0.0584004
      206.500      105515.      112410.   -0.0950884
      209.500      105793.      112410.   -0.0997996
      212.500      104562.      112410.   -0.0863296
      215.500      115760.      112410.   -0.0292287
      218.500      115060.      112410.   -0.0353138
      221.500      112370.      112410.   -0.0379962
      224.500      110752.      112410.   -0.0701187
      227.500      109286.      112410.   -0.0785098
      230.500      108571.      112410.   -0.0844154
      233.500      109753.      112410.   -0.0857015
      236.500      113947.      112410.   -0.0460017
      239.500      116521.      112410.   -0.0041548
      242.500      113368.      112410.   -0.0469400
      245.500      111467.      112410.   -0.0922871
      248.500      114961.      112410.   -0.0161831
      251.500      118403.      112410.    0.0046036
      254.500      110135.      112410.   -0.0362615
      257.500      108959.      112410.   -0.0623207
      260.500      107975.      112410.   -0.0398738
      263.500      117146.      112410.    0.0221026
      266.500      127295.      112410.    0.1393807
      269.500      129597.      112410.    0.1671877
      272.500      126779.      112410.    0.1648958
      275.500      119168.      112410.    0.1048246
      278.500      110809.      112410.   -0.0269755
      281.500      103578.      112410.   -0.0539468
      284.500      104104.      112410.   -0.0438839
      287.500      106985.      112410.   -0.0331881
      290.500      109454.      112410.    0.0689265
      293.500      105470.      112410.   -0.0330618
      296.500      106143.      112410.   -0.0513677
      299.500      107599.      112410.    0.0620964
      302.500      108672.      112410.   -0.0049566
      305.500      107755.      112410.   -0.0145815
      308.500      107755.      112410.   -0.0037697
      311.500      105025.      112410.   -0.0312366
      314.500      105761.      112410.   -0.0040002
      317.500      104746.      112410.   -0.0017224
      320.500      108381.      112410.    0.0304206
      323.500      108570.      112410.    0.0468720
      326.500      108658.      112410.    0.0134107
      329.500      105715.      112410.   -0.0082665
      332.500      108050.      112410.    0.0018167
      335.500      106666.      112410.   -0.0126949
      338.500      107392.      112410.    0.0146204
      341.500      111551.      112410.    0.0493081
      344.500      104553.      112410.   -0.0044414
      347.500      103386.      112410.   -0.0125127
      350.500      104802.      112410.    0.0186917
      353.500      117117.      112410.    0.1144177
      356.500      116896.      112410.    0.1421039
      359.500      116927.      112410.    0.1223864
      20     120      9.85000      69      1.00000      0.00000
      2.50000      91266.3      88330.2    0.0728676
      5.50000      90896.2      88330.2    0.1167464
      8.50000      87469.4      88330.2    0.0498606
      11.5000      81520.9      88330.2   -0.0260847
      14.5000      80788.7      88330.2   -0.0582452
      17.5000      81786.5      88330.2   -0.0271951
      20.5000      86075.8      88330.2   -0.0157300
      23.5000      85384.4      88330.2   -0.0131060
      26.5000      84145.3      88330.2   -0.0042048
      29.5000      82427.1      88330.2   -0.0096093
      32.5000      83394.7      88330.2   -0.0232530
      35.5000      86205.0      88330.2    0.0036952
      38.5000      88056.6      88330.2    0.0045863
      41.5000      77586.3      88330.2   -0.0692195
      44.5000      78943.7      88330.2   -0.0756708
      47.5000      74889.3      88330.2   -0.0655879
      50.5000      76209.9      88330.2   -0.0739250
      53.5000      79826.8      88330.2    0.0306262
      56.5000      83281.2      88330.2   -0.0051670
      59.5000      81043.7      88330.2   -0.0317690
      62.5000      78831.2      88330.2   -0.0586528
      65.5000      77179.8      88330.2   -0.0570239
      68.5000      79529.7      88330.2   -0.0375401
      71.5000      82464.4      88330.2   -0.0274327
      74.5000      81950.3      88330.2   -0.0435845
      77.5000      79250.7      88330.2   -0.0532176
      80.5000      79933.2      88330.2   -0.0348967
      83.5000      83973.5      88330.2   -0.0248091
      86.5000      92379.7      88330.2    0.0644027
      89.5000      97634.4      88330.2    0.1008712
      92.5000      94632.4      88330.2    0.0722575
      95.5000      92202.9      88330.2    0.0352813
      98.5000      83836.3      88330.2   -0.0573303
      101.500      83828.6      88330.2   -0.0635820
      104.500      83828.6      88330.2   -0.0489368
      107.500      89374.3      88330.2   -0.0175258
      110.500      85803.7      88330.2   -0.0236167
      113.500      88371.0      88330.2   -0.0277583
      116.500      88944.3      88330.2   -0.0291676
      119.500      90534.6      88330.2   -0.0059162
      122.500      93654.2      88330.2    0.0311623
      125.500      96894.6      88330.2    0.0772197
      128.500      118446.      88330.2    0.0678665
      131.500      92673.2      88330.2   -0.0603773
      134.500      92673.2      88330.2   -0.0395934
      137.500      97904.6      88330.2   -0.0161643
      140.500      98857.8      88330.2    0.0027812
      143.500      101823.      88330.2    0.0548457
      146.500      101464.      88330.2    0.0460911
      149.500      102023.      88330.2    0.0632948
      152.500      100699.      88330.2    0.0686365
      155.500      96800.7      88330.2    0.0292949
      158.500      94083.0      88330.2    0.0316274
      161.500      94272.0      88330.2    0.0108598
      164.500      94511.4      88330.2   -0.0045842
      167.500      91175.6      88330.2   -0.0192415
      170.500      95702.5      88330.2    0.0103825
      173.500      100263.      88330.2    0.0667222
      176.500      101059.      88330.2    0.0724764
      179.500      98191.6      88330.2    0.0662101
      182.500      99702.3      88330.2    0.0728676
      185.500      107974.      88330.2    0.1167464
      188.500      98898.2      88330.2    0.0498606
      191.500      91006.2      88330.2   -0.0260847
      194.500      85546.5      88330.2   -0.0582452
      197.500      89914.0      88330.2   -0.0271951
      200.500      87057.4      88330.2   -0.0157300
      203.500      88038.5      88330.2   -0.0131060
      206.500      90763.5      88330.2   -0.0042047
      209.500      91390.0      88330.2   -0.0096093
      212.500      87635.5      88330.2   -0.0232530
      215.500      89289.3      88330.2    0.0036952
      218.500      87270.6      88330.2    0.0045863
      221.500      84938.2      88330.2   -0.0692195
      224.500      82167.6      88330.2   -0.0756708
      227.500      88084.5      88330.2   -0.0655879
      230.500      85042.9      88330.2   -0.0739250
      233.500      99690.9      88330.2    0.0306262
      236.500      89576.2      88330.2   -0.0051670
      239.500      87063.0      88330.2   -0.0317690
      242.500      84491.6      88330.2   -0.0586528
      245.500      86372.2      88330.2   -0.0570239
      248.500      87278.8      88330.2   -0.0375401
      251.500      85960.6      88330.2   -0.0274327
      254.500      83591.3      88330.2   -0.0435845
      257.500      84589.3      88330.2   -0.0532176
      260.500      87027.8      88330.2   -0.0348967
      263.500      84665.8      88330.2   -0.0248091
      266.500      91654.7      88330.2    0.0644027
      269.500      92692.2      88330.2    0.1008712
      272.500      90744.0      88330.2    0.0722575
      275.500      86797.4      88330.2    0.0352813
      278.500      79168.8      88330.2   -0.0573303
      281.500      78132.3      88330.2   -0.0635820
      284.500      80676.0      88330.2   -0.0489369
      287.500      80676.0      88330.2   -0.0175258
      290.500      83169.3      88330.2   -0.0236168
      293.500      80038.5      88330.2   -0.0277583
      296.500      79324.6      88330.2   -0.0291676
      299.500      81835.3      88330.2   -0.0059162
      302.500      85236.4      88330.2    0.0311623
      305.500      90058.6      88330.2    0.0772197
      308.500      82583.2      88330.2    0.0678665
      311.500      81770.8      88330.2   -0.0603773
      314.500      84822.9      88330.2   -0.0395934
      317.500      83935.0      88330.2   -0.0161643
      320.500      85862.1      88330.2    0.0027812
      323.500      91667.8      88330.2    0.0548457
      326.500      90029.4      88330.2    0.0460911
      329.500      91991.9      88330.2    0.0632948
      332.500      93574.5      88330.2    0.0686365
      335.500      89873.8      88330.2    0.0292949
      338.500      92202.4      88330.2    0.0316274
      341.500      88158.3      88330.2    0.0108598
      344.500      84974.9      88330.2   -0.0045842
      347.500      85057.0      88330.2   -0.0192415
      350.500      85710.2      88330.2    0.0103825
      353.500      90795.9      88330.2    0.0667222
      356.500      90694.5      88330.2    0.0724764
      359.500      91832.4      88330.2    0.0662101
