   323    17    0     datakind beginning-row linenumbers
----------------------------------------------------------------
MSCD Version 1.00 Yufeng Chen and Michel A Van Hove
Lawrence Berkeley National Laboratory (LBNL), Berkeley, CA 94720
Copyright (c) Van Hove Group 1997. All rights reserved
--------------------------------------------------------------
 angle-resolved photoemission extended fine structure (ARPEFS)
 experimental data for Pd 3d3/2 from W(100)  excited with hv=1810eV

 provided by Pancotti et al. (LNLS in 12, June 2007)
   intial angular momentum (l) = 2
   photon polarization angle (polar,azimuth) = (  30.0,   0.0 ) (deg)
   sample temperature = 300 K

   photoemission angular scan curves
     (curve point theta phi weightc weighte//k intensity chiexp)
      18    702       1      18     39    702
       1     39      9.85000      18      1.00000      0.00000
      131.500      130197.      111640.   -0.0222095
      134.500      127404.      111640.   -0.0425771
      137.500      126408.      111640.   -0.0463312
      140.500      127670.      111640.   -0.0300782
      143.500      131076.      111640.    0.0055648
      146.500      133578.      111640.    0.0374857
      149.500      135121.      111640.    0.0650448
      152.500      133822.      111640.    0.0727842
      155.500      129285.      111640.    0.0561584
      158.500      125235.      111640.    0.0443957
      161.500      120927.      111640.    0.0310622
      164.500      116994.      111640.    0.0211904
      167.500      114486.      111640.    0.0240542
      170.500      108579.      111640.   -0.0039920
      173.500      105165.      111640.   -0.0102787
      176.500      101166.      111640.   -0.0231599
      179.500      96963.5      111640.   -0.0397196
      182.500      92786.1      111640.   -0.0582445
      185.500      87770.1      111640.   -0.0881458
      188.500      85022.0      111640.   -0.0974542
      191.500      84713.4      111640.   -0.0832554
      194.500      86211.6      111640.   -0.0516410
      197.500      89830.2      111640.    0.0010177
      200.500      91567.8      111640.    0.0295036
      203.500      92287.1      111640.    0.0420986
      206.500      88840.1      111640.    0.0024483
      209.500      86578.5      111640.   -0.0291153
      212.500      86970.2      111640.   -0.0363687
      215.500      91244.7      111640.   -0.0070742
      218.500      95638.8      111640.    0.0159211
      221.500      101010.      111640.    0.0410526
      224.500      106428.      111640.    0.0580035
      227.500      111038.      111640.    0.0587302
      230.500      114846.      111640.    0.0448067
      233.500      120136.      111640.    0.0378160
      236.500      125929.      111640.    0.0285725
      239.500      133524.      111640.    0.0273094
      242.500      139170.      111640.    0.0053463
      245.500      143565.      111640.   -0.0288815
      248.500      146409.      111640.   -0.0746955
       2     39      9.85000      21      1.00000      0.00000
      131.500      102204.      104381.    0.0339919
      134.500      100090.      104381.   -0.0047434
      137.500      98656.6      104381.   -0.0325490
      140.500      100217.      104381.   -0.0278828
      143.500      101692.      104381.   -0.0215783
      146.500      104627.      104381.    0.0009290
      149.500      106928.      104381.    0.0193729
      152.500      106052.      104381.    0.0094779
      155.500      102409.      104381.   -0.0249799
      158.500      99816.6      104381.   -0.0479777
      161.500      100706.      104381.   -0.0364897
      164.500      104416.      104381.    0.0032914
      167.500      108891.      104381.    0.0517762
      170.500      111000.      104381.    0.0785970
      173.500      111398.      104381.    0.0895852
      176.500      110334.      104381.    0.0866743
      179.500      107562.      104381.    0.0668815
      182.500      105898.      104381.    0.0577577
      185.500      102850.      104381.    0.0342457
      188.500      99465.7      104381.    0.0064421
      191.500      93267.4      104381.   -0.0511006
      194.500      85945.7      104381.   -0.1216545
      197.500      81593.8      104381.   -0.1633907
      200.500      81605.7      104381.   -0.1617346
      203.500      85018.5      104381.   -0.1265447
      206.500      89643.0      104381.   -0.0806449
      209.500      95572.0      104381.   -0.0236207
      212.500      101897.      104381.    0.0345893
      215.500      105232.      104381.    0.0592303
      218.500      108112.      104381.    0.0759783
      221.500      111294.      104381.    0.0921725
      224.500      112703.      104381.    0.0874394
      227.500      115575.      104381.    0.0932384
      230.500      114364.      104381.    0.0574123
      233.500      112801.      104381.    0.0164781
      236.500      111971.      104381.   -0.0194577
      239.500      112731.      104381.   -0.0433389
      242.500      116963.      104381.   -0.0407298
      245.500      124815.      104381.   -0.0132363
      248.500      128910.      104381.   -0.0199796
       3     39      9.85000      24      1.00000      0.00000
      131.500      87311.1      102060.    0.0451891
      134.500      85757.1      102060.    0.0101002
      137.500      85328.0      102060.   -0.0107970
      140.500      85563.0      102060.   -0.0233902
      143.500      86524.7      102060.   -0.0273234
      146.500      87665.3      102060.   -0.0290178
      149.500      91778.4      102060.    0.0019598
      152.500      92530.2      102060.   -0.0039084
      155.500      91254.8      102060.   -0.0309071
      158.500      90284.3      102060.   -0.0537377
      161.500      93447.7      102060.   -0.0329236
      164.500      98411.1      102060.    0.0060962
      167.500      101311.      102060.    0.0236977
      170.500      104072.      102060.    0.0399042
      173.500      106413.      102060.    0.0520396
      176.500      109206.      102060.    0.0688025
      179.500      110471.      102060.    0.0709124
      182.500      111818.      102060.    0.0742963
      185.500      115845.      102060.    0.1037109
      188.500      114677.      102060.    0.0841313
      191.500      108666.      102060.    0.0199927
      194.500      98097.2      102060.   -0.0851785
      197.500      88929.9      102060.   -0.1755032
      200.500      86967.1      102060.   -0.1978595
      203.500      90983.2      102060.   -0.1645668
      206.500      99341.5      102060.   -0.0912476
      209.500      109710.      102060.    0.0005658
      212.500      117931.      102060.    0.0730864
      215.500      117383.      102060.    0.0665045
      218.500      117426.      102060.    0.0661463
      221.500      116881.      102060.    0.0613396
      224.500      116761.      102060.    0.0613021
      227.500      114874.      102060.    0.0461147
      230.500      114219.      102060.    0.0430702
      233.500      112366.      102060.    0.0300099
      236.500      107479.      102060.   -0.0100802
      239.500      102610.      102060.   -0.0494267
      242.500      102008.      102060.   -0.0484653
      245.500      104590.      102060.   -0.0165068
      248.500      105518.      102060.    0.0014229
       4     39      9.85000      27      1.00000      0.00000
      131.500      91421.9      98233.4   -0.1174866
      134.500      101798.      98233.4    0.0105151
      137.500      108395.      98233.4    0.1024643
      140.500      107973.      98233.4    0.1210731
      143.500      103406.      98233.4    0.0920661
      146.500      96170.1      98233.4    0.0293938
      149.500      90356.3      98233.4   -0.0231205
      152.500      89132.4      98233.4   -0.0298565
      155.500      86884.1      98233.4   -0.0508720
      158.500      88473.3      98233.4   -0.0327224
      161.500      89605.8      98233.4   -0.0220531
      164.500      88645.5      98233.4   -0.0364245
      167.500      83647.4      98233.4   -0.0962042
      170.500      80327.5      98233.4   -0.1387253
      173.500      83185.9      98233.4   -0.1161274
      176.500      87646.0      98233.4   -0.0781334
      179.500      91227.2      98233.4   -0.0508886
      182.500      94853.9      98233.4   -0.0243615
      185.500      100426.      98233.4    0.0209907
      188.500      108210.      98233.4    0.0874301
      191.500      114448.      98233.4    0.1371743
      194.500      115677.      98233.4    0.1370351
      197.500      113266.      98233.4    0.1021953
      200.500      111560.      98233.4    0.0757876
      203.500      113565.      98233.4    0.0865001
      206.500      114574.      98233.4    0.0890518
      209.500      114170.      98233.4    0.0799009
      212.500      109147.      98233.4    0.0292095
      215.500      102997.      98233.4   -0.0298020
      218.500      99568.3      98233.4   -0.0609591
      221.500      97755.3      98233.4   -0.0746188
      224.500      94247.0      98233.4   -0.1020126
      227.500      89102.2      98233.4   -0.1428694
      230.500      88733.9      98233.4   -0.1352674
      233.500      93987.3      98233.4   -0.0685955
      236.500      97815.7      98233.4   -0.0101019
      239.500      97055.7      98233.4    0.0078124
      242.500      96410.4      98233.4    0.0327565
      245.500      96021.4      98233.4    0.0676591
      248.500      97451.2      98233.4    0.1327583
       5     39      9.85000      30      1.00000      0.00000
      131.500      293003.      285209.   -0.0557998
      134.500      300818.      285209.   -0.0002887
      137.500      303866.      285209.    0.0377258
      140.500      310713.      285209.    0.0864669
      143.500      307945.      285209.    0.0985109
      146.500      300564.      285209.    0.0898766
      149.500      287110.      285209.    0.0545519
      152.500      272444.      285209.    0.0101983
      155.500      255021.      285209.   -0.0484695
      158.500      251562.      285209.   -0.0583027
      161.500      249956.      285209.   -0.0638247
      164.500      245606.      285209.   -0.0819048
      167.500      232210.      285209.   -0.1355564
      170.500      218095.      285209.   -0.1929625
      173.500      222643.      285209.   -0.1823515
      176.500      234759.      285209.   -0.1454515
      179.500      241568.      285209.   -0.1292524
      182.500      255809.      285209.   -0.0875394
      185.500      274753.      285209.   -0.0305666
      188.500      306831.      285209.    0.0707776
      191.500      347180.      285209.    0.1985085
      194.500      365160.      285209.    0.2474596
      197.500      376846.      285209.    0.2747875
      200.500      377727.      285209.    0.2663602
      203.500      374845.      285209.    0.2468360
      206.500      359899.      285209.    0.1892781
      209.500      341393.      285209.    0.1224456
      212.500      302821.      285209.   -0.0076579
      215.500      267827.      285209.   -0.1235020
      218.500      256546.      285209.   -0.1596898
      221.500      246839.      285209.   -0.1887907
      224.500      240309.      285209.   -0.2054590
      227.500      235812.      285209.   -0.2132266
      230.500      244536.      285209.   -0.1739217
      233.500      266528.      285209.   -0.0849660
      236.500      279944.      285209.   -0.0191712
      239.500      279044.      285209.    0.0024508
      242.500      278500.      285209.    0.0313155
      245.500      290591.      285209.    0.1160095
      248.500      310737.      285209.    0.2463830
       6     39      9.85000      33      1.00000      0.00000
      131.500      316932.      311070.   -0.0065591
      134.500      321561.      311070.    0.0351655
      137.500      303365.      311070.   -0.0012004
      140.500      305741.      311070.    0.0252553
      143.500      322517.      311070.    0.0970537
      146.500      332272.      311070.    0.1419710
      149.500      294568.      311070.    0.0190757
      152.500      263784.      311070.   -0.0846101
      155.500      261766.      311070.   -0.0917341
      158.500      267537.      311070.   -0.0745242
      161.500      270024.      311070.   -0.0711279
      164.500      269950.      311070.   -0.0785854
      167.500      270167.      311070.   -0.0866827
      170.500      268148.      311070.   -0.1035178
      173.500      269664.      311070.   -0.1094094
      176.500      283391.      311070.   -0.0761789
      179.500      300253.      311070.   -0.0343067
      182.500      307155.      311070.   -0.0254677
      185.500      311508.      311070.   -0.0248756
      188.500      327112.      311070.    0.0107084
      191.500      356876.      311070.    0.0891539
      194.500      390057.      311070.    0.1769410
      197.500      412519.      311070.    0.2320948
      200.500      419847.      311070.    0.2430409
      203.500      410395.      311070.    0.2064640
      206.500      388571.      311070.    0.1363818
      209.500      353598.      311070.    0.0309401
      212.500      328716.      311070.   -0.0422577
      215.500      316900.      311070.   -0.0748665
      218.500      315852.      311070.   -0.0733953
      221.500      301683.      311070.   -0.1077227
      224.500      277889.      311070.   -0.1683846
      227.500      272280.      311070.   -0.1722283
      230.500      282355.      311070.   -0.1240453
      233.500      283663.      311070.   -0.0974480
      236.500      280165.      311070.   -0.0804893
      239.500      280801.      311070.   -0.0430920
      242.500      287377.      311070.    0.0246309
      245.500      292487.      311070.    0.1009597
      248.500      323362.      311070.    0.2989294
       7     39      9.85000      36      1.00000      0.00000
      131.500      278349.      312401.   -0.0226273
      134.500      293706.      312401.    0.0365818
      137.500      284792.      312401.    0.0080674
      140.500      282952.      312401.    0.0024262
      143.500      293236.      312401.    0.0377858
      146.500      290155.      312401.    0.0240238
      149.500      254773.      312401.   -0.1047673
      152.500      243202.      312401.   -0.1503554
      155.500      281205.      312401.   -0.0244623
      158.500      321079.      312401.    0.1048985
      161.500      338006.      312401.    0.1527507
      164.500      320910.      312401.    0.0838833
      167.500      286002.      312401.   -0.0438746
      170.500      272904.      312401.   -0.0973275
      173.500      301776.      312401.   -0.0126411
      176.500      329986.      312401.    0.0678603
      179.500      318704.      312401.    0.0201345
      182.500      297281.      312401.   -0.0586109
      185.500      285255.      312401.   -0.1060691
      188.500      291300.      312401.   -0.0962040
      191.500      320907.      312401.   -0.0136918
      194.500      347040.      312401.    0.0573298
      197.500      366654.      312401.    0.1082264
      200.500      372727.      312401.    0.1186543
      203.500      366836.      312401.    0.0943311
      206.500      347158.      312401.    0.0305362
      209.500      319502.      312401.   -0.0550585
      212.500      301650.      312401.   -0.1099538
      215.500      310747.      312401.   -0.0839239
      218.500      328304.      312401.   -0.0314894
      221.500      351379.      312401.    0.0390922
      224.500      344636.      312401.    0.0235159
      227.500      304228.      312401.   -0.0907918
      230.500      300343.      312401.   -0.0947754
      233.500      340299.      312401.    0.0368184
      236.500      369137.      312401.    0.1398578
      239.500      357016.      312401.    0.1204509
      242.500      314869.      312401.    0.0074391
      245.500      279008.      312401.   -0.0867972
      248.500      288021.      312401.   -0.0319944
       8     39      9.85000      39      1.00000      0.00000
      131.500      221674.      276239.    0.0031569
      134.500      224960.      276239.   -0.0203023
      137.500      229277.      276239.   -0.0340518
      140.500      234627.      276239.   -0.0393429
      143.500      230112.      276239.   -0.0806571
      146.500      234794.      276239.   -0.0814102
      149.500      236365.      276239.   -0.0915684
      152.500      264074.      276239.   -0.0001433
      155.500      311777.      276239.    0.1658838
      158.500      339066.      276239.    0.2550853
      161.500      341145.      276239.    0.2525041
      164.500      314774.      276239.    0.1483232
      167.500      289835.      276239.    0.0522665
      170.500      269251.      276239.   -0.0258245
      173.500      251465.      276239.   -0.0922284
      176.500      237585.      276239.   -0.1434123
      179.500      229650.      276239.   -0.1723814
      182.500      223946.      276239.   -0.1927653
      185.500      227331.      276239.   -0.1800075
      188.500      243164.      276239.   -0.1220403
      191.500      281555.      276239.    0.0176874
      194.500      308615.      276239.    0.1166583
      197.500      303781.      276239.    0.1000538
      200.500      304194.      276239.    0.1019916
      203.500      313608.      276239.    0.1358817
      206.500      310259.      276239.    0.1226872
      209.500      277746.      276239.    0.0031444
      212.500      242742.      276239.   -0.1258977
      215.500      238836.      276239.   -0.1436171
      218.500      246994.      276239.   -0.1193857
      221.500      261648.      276239.   -0.0738890
      224.500      274807.      276239.   -0.0360018
      227.500      282343.      276239.   -0.0202133
      230.500      302170.      276239.    0.0353086
      233.500      322638.      276239.    0.0892166
      236.500      364397.      276239.    0.2096023
      239.500      375701.      276239.    0.2236118
      242.500      342932.      276239.    0.0934448
      245.500      285415.      276239.   -0.1110002
      248.500      254314.      276239.   -0.2278766
       9     39      9.85000      42      1.00000      0.00000
      131.500      246071.      277471.    0.2378448
      134.500      204037.      277471.   -0.0540404
      137.500      184184.      277471.   -0.2004807
      140.500      187589.      277471.   -0.2278598
      143.500      201883.      277471.   -0.2038028
      146.500      239989.      277471.   -0.0851895
      149.500      291425.      277471.    0.0817125
      152.500      320624.      277471.    0.1662806
      155.500      348687.      277471.    0.2499050
      158.500      348797.      277471.    0.2381004
      161.500      332021.      277471.    0.1720252
      164.500      322936.      277471.    0.1378645
      167.500      307724.      277471.    0.0857868
      170.500      275370.      277471.   -0.0242972
      173.500      243816.      277471.   -0.1304328
      176.500      218477.      277471.   -0.2141774
      179.500      202024.      277471.   -0.2660744
      182.500      219948.      277471.   -0.1920944
      185.500      247270.      277471.   -0.0810973
      188.500      271236.      277471.    0.0199116
      191.500      289542.      277471.    0.1012606
      194.500      278786.      277471.    0.0715987
      197.500      243264.      277471.   -0.0563547
      200.500      235380.      277471.   -0.0803600
      203.500      264848.      277471.    0.0396009
      206.500      294973.      277471.    0.1596846
      209.500      290773.      277471.    0.1408701
      212.500      265222.      277471.    0.0342843
      215.500      233977.      277471.   -0.0972111
      218.500      218520.      277471.   -0.1698224
      221.500      222223.      277471.   -0.1730065
      224.500      254343.      277471.   -0.0777157
      227.500      289146.      277471.    0.0161880
      230.500      332211.      277471.    0.1256044
      233.500      349290.      277471.    0.1351466
      236.500      361110.      277471.    0.1201861
      239.500      384841.      277471.    0.1343752
      242.500      393676.      277471.    0.0981229
      245.500      362528.      277471.   -0.0465685
      248.500      320076.      277471.   -0.2088878
      10     39      9.85000      45      1.00000      0.00000
      131.500      227726.      253418.    0.1089880
      134.500      217060.      253418.    0.0185801
      137.500      199973.      253418.   -0.0905994
      140.500      197128.      253418.   -0.1269359
      143.500      213389.      253418.   -0.0755928
      146.500      230394.      253418.   -0.0200347
      149.500      247200.      253418.    0.0358535
      152.500      267607.      253418.    0.1080275
      155.500      275860.      253418.    0.1315884
      158.500      256948.      253418.    0.0466490
      161.500      241498.      253418.   -0.0211639
      164.500      253751.      253418.    0.0252087
      167.500      254382.      253418.    0.0260220
      170.500      236370.      253418.   -0.0470201
      173.500      228600.      253418.   -0.0777815
      176.500      227312.      253418.   -0.0816786
      179.500      211199.      253418.   -0.1450795
      182.500      225249.      253418.   -0.0860983
      185.500      268345.      253418.    0.0913708
      188.500      279251.      253418.    0.1382915
      191.500      278281.      253418.    0.1364605
      194.500      261546.      253418.    0.0694446
      197.500      213594.      253418.   -0.1263053
      200.500      203045.      253418.   -0.1700692
      203.500      235225.      253418.   -0.0405432
      206.500      279946.      253418.    0.1376895
      209.500      288852.      253418.    0.1674837
      212.500      282219.      253418.    0.1321866
      215.500      248945.      253418.   -0.0109052
      218.500      218113.      253418.   -0.1437605
      221.500      227457.      253418.   -0.1199563
      224.500      245340.      253418.   -0.0668972
      227.500      251918.      253418.   -0.0606972
      230.500      275928.      253418.    0.0058451
      233.500      298021.      253418.    0.0591871
      236.500      293644.      253418.    0.0147062
      239.500      305695.      253418.    0.0242996
      242.500      336444.      253418.    0.0902621
      245.500      328483.      253418.    0.0268606
      248.500      304772.      253418.   -0.0831188
      11     39      9.85000      48      1.00000      0.00000
      131.500      225539.      238643.   -0.0832115
      134.500      239352.      238643.   -0.0148960
      137.500      257325.      238643.    0.0710239
      140.500      266083.      238643.    0.1186177
      143.500      247565.      238643.    0.0499903
      146.500      232647.      238643.   -0.0056945
      149.500      223605.      238643.   -0.0380866
      152.500      228288.      238643.   -0.0126041
      155.500      228279.      238643.   -0.0083370
      158.500      221166.      238643.   -0.0360351
      161.500      217589.      238643.   -0.0493902
      164.500      222197.      238643.   -0.0278781
      167.500      221054.      238643.   -0.0323499
      170.500      214762.      238643.   -0.0601481
      173.500      211444.      238643.   -0.0756294
      176.500      216578.      238643.   -0.0548297
      179.500      230398.      238643.    0.0030802
      182.500      259683.      238643.    0.1272270
      185.500      276875.      238643.    0.1976577
      188.500      260582.      238643.    0.1227301
      191.500      233631.      238643.    0.0022304
      194.500      219061.      238643.   -0.0646806
      197.500      213158.      238643.   -0.0944060
      200.500      215069.      238643.   -0.0910321
      203.500      211889.      238643.   -0.1092687
      206.500      230981.      238643.   -0.0343176
      209.500      256541.      238643.    0.0666284
      212.500      284350.      238643.    0.1757277
      215.500      282628.      238643.    0.1622302
      218.500      246969.      238643.    0.0101548
      221.500      232155.      238643.   -0.0553755
      224.500      235376.      238643.   -0.0470490
      227.500      236228.      238643.   -0.0481281
      230.500      245500.      238643.   -0.0151521
      233.500      245804.      238643.   -0.0179541
      236.500      233005.      238643.   -0.0725191
      239.500      227926.      238643.   -0.0956732
      242.500      252875.      238643.    0.0005587
      245.500      276577.      238643.    0.0919244
      248.500      264978.      238643.    0.0444338
      12     39      9.85000      51      1.00000      0.00000
      131.500      205684.      239547.   -0.2389903
      134.500      258926.      239547.   -0.0182026
      137.500      311744.      239547.    0.2091405
      140.500      318059.      239547.    0.2594510
      143.500      284887.      239547.    0.1494516
      146.500      233439.      239547.   -0.0421776
      149.500      186913.      239547.   -0.2216136
      152.500      178407.      239547.   -0.2473812
      155.500      199453.      239547.   -0.1492718
      158.500      239381.      239547.    0.0304544
      161.500      272573.      239547.    0.1820649
      164.500      275969.      239547.    0.2036662
      167.500      250358.      239547.    0.0964788
      170.500      228477.      239547.    0.0032832
      173.500      209944.      239547.   -0.0769512
      176.500      205355.      239547.   -0.0971560
      179.500      209611.      239547.   -0.0795314
      182.500      236334.      239547.    0.0355276
      185.500      250428.      239547.    0.0938758
      188.500      236549.      239547.    0.0292486
      191.500      220915.      239547.   -0.0431157
      194.500      215272.      239547.   -0.0722462
      197.500      234247.      239547.    0.0040563
      200.500      244615.      239547.    0.0425376
      203.500      222516.      239547.   -0.0571713
      206.500      211706.      239547.   -0.1082315
      209.500      233452.      239547.   -0.0223016
      212.500      256262.      239547.    0.0672540
      215.500      258962.      239547.    0.0728280
      218.500      236188.      239547.   -0.0262535
      221.500      216668.      239547.   -0.1105772
      224.500      218022.      239547.   -0.1083122
      227.500      235402.      239547.   -0.0400664
      230.500      263923.      239547.    0.0739798
      233.500      284460.      239547.    0.1562182
      236.500      295573.      239547.    0.2012791
      239.500      277190.      239547.    0.1277810
      242.500      233102.      239547.   -0.0493490
      245.500      208188.      239547.   -0.1477402
      248.500      222722.      239547.   -0.0833854
      13     39      9.85000      54      1.00000      0.00000
      131.500      180586.      229396.   -0.2399359
      134.500      230766.      229396.   -0.0062553
      137.500      276487.      229396.    0.2142955
      140.500      285670.      229396.    0.2754991
      143.500      254554.      229396.    0.1518729
      146.500      210512.      229396.   -0.0375142
      149.500      161568.      229396.   -0.2557641
      152.500      160891.      229396.   -0.2553755
      155.500      199146.      229396.   -0.0763191
      158.500      221327.      229396.    0.0264074
      161.500      230099.      229396.    0.0646929
      164.500      241793.      229396.    0.1142193
      167.500      241772.      229396.    0.1077800
      170.500      219131.      229396.   -0.0030291
      173.500      194074.      229396.   -0.1242084
      176.500      215194.      229396.   -0.0376233
      179.500      246271.      229396.    0.0908024
      182.500      262691.      229396.    0.1519495
      185.500      246061.      229396.    0.0681263
      188.500      206820.      229396.   -0.1112218
      191.500      191563.      229396.   -0.1848158
      194.500      226444.      229396.   -0.0453203
      197.500      267070.      229396.    0.1162654
      200.500      280888.      229396.    0.1649244
      203.500      251471.      229396.    0.0359295
      206.500      207481.      229396.   -0.1499728
      209.500      204781.      229396.   -0.1644550
      212.500      240549.      229396.   -0.0209518
      215.500      268270.      229396.    0.0911099
      218.500      257683.      229396.    0.0493999
      221.500      228039.      229396.   -0.0680854
      224.500      213101.      229396.   -0.1239730
      227.500      221703.      229396.   -0.0807635
      230.500      246497.      229396.    0.0338797
      233.500      271848.      229396.    0.1571864
      236.500      266787.      229396.    0.1567347
      239.500      255041.      229396.    0.1309001
      242.500      225910.      229396.    0.0291143
      245.500      190670.      229396.   -0.1030795
      248.500      174632.      229396.   -0.1467444
      14     39      9.85000      57      1.00000      0.00000
      131.500      178710.      217656.   -0.1005339
      134.500      196909.      217656.   -0.0041968
      137.500      212714.      217656.    0.0784638
      140.500      218484.      217656.    0.1082148
      143.500      211154.      217656.    0.0694544
      146.500      194551.      217656.   -0.0178292
      149.500      177021.      217656.   -0.1106288
      152.500      160687.      217656.   -0.1977084
      155.500      183565.      217656.   -0.0902892
      158.500      216323.      217656.    0.0629854
      161.500      228556.      217656.    0.1126379
      164.500      228326.      217656.    0.1004246
      167.500      229103.      217656.    0.0925866
      170.500      217517.      217656.    0.0261005
      173.500      185340.      217656.   -0.1353130
      176.500      203848.      217656.   -0.0594640
      179.500      257646.      217656.    0.1757672
      182.500      275937.      217656.    0.2458025
      185.500      245610.      217656.    0.0974790
      188.500      200680.      217656.   -0.1120424
      191.500      167661.      217656.   -0.2649182
      194.500      203087.      217656.   -0.1170493
      197.500      242927.      217656.    0.0482450
      200.500      248415.      217656.    0.0649564
      203.500      231345.      217656.   -0.0135682
      206.500      182723.      217656.   -0.2241340
      209.500      178429.      217656.   -0.2445027
      212.500      241092.      217656.    0.0194442
      215.500      279563.      217656.    0.1824143
      218.500      288443.      217656.    0.2223964
      221.500      235879.      217656.    0.0035101
      224.500      195559.      217656.   -0.1630971
      227.500      226117.      217656.   -0.0244349
      230.500      252554.      217656.    0.1011467
      233.500      250114.      217656.    0.1049320
      236.500      244078.      217656.    0.0956645
      239.500      240011.      217656.    0.0982349
      242.500      215508.      217656.    0.0086763
      245.500      177715.      217656.   -0.1458939
      248.500      182353.      217656.   -0.0961999
      15     39      9.85000      60      1.00000      0.00000
      131.500      169090.      191556.    0.0855288
      134.500      160640.      191556.    0.0084490
      137.500      149217.      191556.   -0.0825684
      140.500      147116.      191556.   -0.1128332
      143.500      161694.      191556.   -0.0423316
      146.500      172375.      191556.    0.0039627
      149.500      189476.      191556.    0.0865066
      152.500      195067.      191556.    0.1024959
      155.500      163162.      191556.   -0.0901406
      158.500      173855.      191556.   -0.0425287
      161.500      202299.      191556.    0.1013145
      164.500      201957.      191556.    0.0877482
      167.500      179076.      191556.   -0.0449899
      170.500      171114.      191556.   -0.0957505
      173.500      166584.      191556.   -0.1270674
      176.500      204758.      191556.    0.0646967
      179.500      234413.      191556.    0.2102693
      182.500      231802.      191556.    0.1890275
      185.500      199922.      191556.    0.0194304
      188.500      176917.      191556.   -0.1027318
      191.500      166089.      191556.   -0.1617642
      194.500      191870.      191556.   -0.0359206
      197.500      198371.      191556.   -0.0072153
      200.500      194228.      191556.   -0.0314075
      203.500      199028.      191556.   -0.0106123
      206.500      181084.      191556.   -0.1023383
      209.500      168119.      191556.   -0.1686662
      212.500      196567.      191556.   -0.0300876
      215.500      235729.      191556.    0.1609803
      218.500      248436.      191556.    0.2216049
      221.500      223937.      191556.    0.0996430
      224.500      179699.      191556.   -0.1185949
      227.500      178838.      191556.   -0.1236457
      230.500      198745.      191556.   -0.0268454
      233.500      217883.      191556.    0.0662020
      236.500      234229.      191556.    0.1456261
      239.500      215744.      191556.    0.0548064
      242.500      190577.      191556.   -0.0685209
      245.500      192677.      191556.   -0.0584802
      248.500      199868.      191556.   -0.0235378
      16     39      9.85000      63      1.00000      0.00000
      131.500      172506.      173311.    0.2352543
      134.500      146151.      173311.    0.0165666
      137.500      122719.      173311.   -0.1685106
      140.500      117849.      173311.   -0.2201889
      143.500      132655.      173311.   -0.1407604
      146.500      163214.      173311.    0.0370250
      149.500      190765.      173311.    0.1912603
      152.500      203530.      173311.    0.2513435
      155.500      169980.      173311.    0.0305967
      158.500      145980.      173311.   -0.1258876
      161.500      153693.      173311.   -0.0898781
      164.500      159451.      173311.   -0.0650549
      167.500      155990.      173311.   -0.0932998
      170.500      153980.      173311.   -0.1118329
      173.500      169439.      173311.   -0.0292152
      176.500      204241.      173311.    0.1633501
      179.500      219333.      173311.    0.2429990
      182.500      198663.      173311.    0.1209685
      185.500      162458.      173311.   -0.0867241
      188.500      153313.      173311.   -0.1408449
      191.500      152902.      173311.   -0.1454253
      194.500      163489.      173311.   -0.0882928
      197.500      207561.      173311.    0.1553066
      200.500      225210.      173311.    0.2515545
      203.500      180023.      173311.   -0.0009240
      206.500      154729.      173311.   -0.1423305
      209.500      153474.      173311.   -0.1502289
      212.500      160188.      173311.   -0.1140127
      215.500      190889.      173311.    0.0546070
      218.500      225691.      173311.    0.2453649
      221.500      221320.      173311.    0.2195536
      224.500      183918.      173311.    0.0118288
      227.500      164459.      173311.   -0.0969440
      230.500      160828.      173311.   -0.1188743
      233.500      175863.      173311.   -0.0390656
      236.500      173283.      173311.   -0.0561383
      239.500      160391.      173311.   -0.1295662
      242.500      163562.      173311.   -0.1161364
      245.500      205434.      173311.    0.1046926
      248.500      213308.      173311.    0.1406112
      17     39      9.85000      66      1.00000      0.00000
      131.500      97832.3      154604.   -0.0301027
      134.500      90486.1      154604.   -0.1824902
      137.500      125852.      154604.    0.0536749
      140.500      130173.      154604.    0.0234427
      143.500      126748.      154604.   -0.0540496
      146.500      134461.      154604.   -0.0388232
      149.500      160535.      154604.    0.1075073
      152.500      188421.      154604.    0.2626859
      155.500      186171.      154604.    0.2187246
      158.500      168536.      154604.    0.0830274
      161.500      144499.      154604.   -0.0845653
      164.500      137632.      154604.   -0.1371455
      167.500      134392.      154604.   -0.1634560
      170.500      134817.      154604.   -0.1643566
      173.500      142985.      154604.   -0.1152323
      176.500      173122.      154604.    0.0717837
      179.500      184190.      154604.    0.1429851
      182.500      163587.      154604.    0.0190824
      185.500      133989.      154604.   -0.1610448
      188.500      131346.      154604.   -0.1726638
      191.500      145712.      154604.   -0.0761645
      194.500      165087.      154604.    0.0537577
      197.500      175116.      154604.    0.1251942
      200.500      181563.      154604.    0.1738041
      203.500      169008.      154604.    0.0984365
      206.500      159883.      154604.    0.0433809
      209.500      135758.      154604.   -0.1118344
      212.500      133869.      154604.   -0.1237156
      215.500      156272.      154604.    0.0211371
      218.500      188383.      154604.    0.2255472
      221.500      191879.      154604.    0.2391186
      224.500      156436.      154604.   -0.0004361
      227.500      142456.      154604.   -0.1025177
      230.500      141424.      154604.   -0.1247254
      233.500      144496.      154604.   -0.1248218
      236.500      151454.      154604.   -0.1057577
      239.500      164714.      154604.   -0.0556169
      242.500      185372.      154604.    0.0280996
      245.500      208562.      154604.    0.1147557
      248.500      196956.      154604.    0.0109102
      18     39      9.85000      69      1.00000      0.00000
      131.500      74371.9      93459.7   -0.1011731
      134.500      85726.2      93459.7    0.0110963
      137.500      93428.5      93459.7    0.0793413
      140.500      92310.9      93459.7    0.0479728
      143.500      94095.2      93459.7    0.0528119
      146.500      80832.9      93459.7   -0.1062909
      149.500      81807.7      93459.7   -0.1041209
      152.500      100650.      93459.7    0.0940389
      155.500      108554.      93459.7    0.1734152
      158.500      106964.      93459.7    0.1517716
      161.500      96409.9      93459.7    0.0356658
      164.500      78006.4      93459.7   -0.1629174
      167.500      79370.2      93459.7   -0.1482175
      170.500      81077.2      93459.7   -0.1289939
      173.500      92626.9      93459.7   -0.0030925
      176.500      97430.7      93459.7    0.0511852
      179.500      93593.6      93459.7    0.0127262
      182.500      79876.4      93459.7   -0.1329397
      185.500      75204.5      93459.7   -0.1809563
      188.500      84041.1      93459.7   -0.0817543
      191.500      90281.2      93459.7   -0.0106203
      194.500      105428.      93459.7    0.1583419
      197.500      109130.      93459.7    0.2013754
      200.500      111111.      93459.7    0.2246282
      203.500      108780.      93459.7    0.1991913
      206.500      96257.3      93459.7    0.0601645
      209.500      86678.6      93459.7   -0.0474714
      212.500      78136.1      93459.7   -0.1445392
      215.500      77778.0      93459.7   -0.1530183
      218.500      95465.2      93459.7    0.0321757
      221.500      103460.      93459.7    0.1085051
      224.500      96547.4      93459.7    0.0229933
      227.500      86576.0      93459.7   -0.0947527
      230.500      83286.6      93459.7   -0.1425339
      233.500      83704.1      93459.7   -0.1534165
      236.500      91685.3      93459.7   -0.0911387
      239.500      114012.      93459.7    0.1051197
      242.500      121257.      93459.7    0.1466319
      245.500      120617.      93459.7    0.1101591
      248.500      101819.      93459.7   -0.0898873
