   323    17    0     datakind beginning-row linenumbers
----------------------------------------------------------------
MSCD Version 1.00 Yufeng Chen and Michel A Van Hove
Lawrence Berkeley National Laboratory (LBNL), Berkeley, CA 94720
Copyright (c) Van Hove Group 1997. All rights reserved
--------------------------------------------------------------
 angle-resolved photoemission extended fine structure (ARPEFS)
 experimental data for Pd 3d3/2 from W(100)  excited with hv=1810eV

 provided by Pancotti et al. (LNLS in 12, June 2007)
   intial angular momentum (l) = 2
   photon polarization angle (polar,azimuth) = (  30.0,   0.0 ) (deg)
   sample temperature = 300 K

   photoemission angular scan curves
     (curve point theta phi weightc weighte//k intensity chiexp)
      20    2420       1      20     121    2420
       1     121      9.85000      12      1.00000      0.00000
      128.500      325586.      352723.    0.0000605
      131.500      339400.      352723.    0.0093187
      134.500      344807.      352723.   -0.0058076
      137.500      357484.      352723.   -0.0083568
      140.500      362181.      352723.   -0.0136983
      143.500      366549.      352723.   -0.0235225
      146.500      377452.      352723.   -0.0149690
      149.500      388699.      352723.    0.0040049
      152.500      389505.      352723.   -0.0084880
      155.500      379806.      352723.   -0.0110291
      158.500      379882.      352723.   -0.0055387
      161.500      382815.      352723.   -0.0050221
      164.500      370866.      352723.   -0.0244237
      167.500      370506.      352723.   -0.0261191
      170.500      369678.      352723.   -0.0230361
      173.500      364105.      352723.   -0.0233975
      176.500      372651.      352723.   -0.0126865
      179.500      367849.      352723.   -0.0160695
      182.500      375645.      352723.   -0.0197070
      185.500      381549.      352723.   -0.0077355
      188.500      393458.      352723.    0.0100624
      191.500      400969.      352723.    0.0266937
      194.500      406444.      352723.    0.0367415
      197.500      408786.      352723.    0.0300971
      200.500      415234.      352723.    0.0321379
      203.500      406810.      352723.    0.0343672
      206.500      403445.      352723.    0.0269848
      209.500      394212.      352723.    0.0187483
      212.500      392677.      352723.    0.0145326
      215.500      377262.      352723.    0.0060510
      218.500      377843.      352723.    0.0000605
      221.500      374570.      352723.    0.0093187
      224.500      361968.      352723.   -0.0058076
      227.500      350462.      352723.   -0.0083568
      230.500      344708.      352723.   -0.0136983
      233.500      335540.      352723.   -0.0235225
      236.500      332628.      352723.   -0.0149690
      239.500      336316.      352723.    0.0040049
      242.500      327392.      352723.   -0.0084880
      245.500      334423.      352723.   -0.0110291
      248.500      337458.      352723.   -0.0055388
      251.500      334159.      352723.   -0.0050222
      254.500      330122.      352723.   -0.0244237
      257.500      327555.      352723.   -0.0261191
      260.500      328254.      352723.   -0.0230361
      263.500      330385.      352723.   -0.0233975
      266.500      327751.      352723.   -0.0126865
      269.500      326883.      352723.   -0.0160696
      272.500      315541.      352723.   -0.0197070
      275.500      315541.      352723.   -0.0077355
      278.500      314262.      352723.    0.0100623
      281.500      315661.      352723.    0.0266938
      284.500      314534.      352723.    0.0367415
      287.500      305660.      352723.    0.0300971
      290.500      298904.      352723.    0.0321379
      293.500      304047.      352723.    0.0343672
      296.500      299486.      352723.    0.0269848
      299.500      299213.      352723.    0.0187483
      302.500      295418.      352723.    0.0145326
      305.500      300367.      352723.    0.0060510
      308.500      325586.      352723.    0.0000605
      311.500      339400.      352723.    0.0093187
      314.500      344807.      352723.   -0.0058076
      317.500      357484.      352723.   -0.0083568
      320.500      362181.      352723.   -0.0136983
      323.500      366549.      352723.   -0.0235225
      326.500      377452.      352723.   -0.0149690
      329.500      388699.      352723.    0.0040049
      332.500      389505.      352723.   -0.0084880
      335.500      379806.      352723.   -0.0110291
      338.500      379882.      352723.   -0.0055387
      341.500      382815.      352723.   -0.0050221
      344.500      370866.      352723.   -0.0244237
      347.500      370506.      352723.   -0.0261191
      350.500      369678.      352723.   -0.0230361
      353.500      364105.      352723.   -0.0233975
      356.500      372651.      352723.   -0.0126865
      359.500      367849.      352723.   -0.0160695
      360.000      325586.      352723.    0.0000605
      362.500      375645.      352723.   -0.0197070
      365.500      381549.      352723.   -0.0077355
      368.500      393458.      352723.    0.0100624
      371.500      400969.      352723.    0.0266937
      374.500      406444.      352723.    0.0367415
      377.500      408786.      352723.    0.0300971
      380.500      415234.      352723.    0.0321379
      383.500      406810.      352723.    0.0343672
      386.500      403445.      352723.    0.0269848
      389.500      394212.      352723.    0.0187483
      392.500      392677.      352723.    0.0145326
      395.500      377262.      352723.    0.0060510
      398.500      377843.      352723.    0.0000605
      401.500      374570.      352723.    0.0093187
      404.500      361968.      352723.   -0.0058076
      407.500      350462.      352723.   -0.0083568
      410.500      344708.      352723.   -0.0136983
      413.500      335540.      352723.   -0.0235225
      416.500      332628.      352723.   -0.0149690
      419.500      336316.      352723.    0.0040049
      422.500      327392.      352723.   -0.0084880
      425.500      334423.      352723.   -0.0110291
      428.500      337458.      352723.   -0.0055388
      431.500      334159.      352723.   -0.0050222
      434.500      330122.      352723.   -0.0244237
      437.500      327555.      352723.   -0.0261191
      440.500      328254.      352723.   -0.0230361
      443.500      330385.      352723.   -0.0233975
      446.500      327751.      352723.   -0.0126865
      449.500      326883.      352723.   -0.0160696
      452.500      315541.      352723.   -0.0197070
      455.500      315541.      352723.   -0.0077355
      458.500      314262.      352723.    0.0100623
      461.500      315661.      352723.    0.0266938
      464.500      314534.      352723.    0.0367415
      467.500      305660.      352723.    0.0300971
      470.500      298904.      352723.    0.0321379
      473.500      304047.      352723.    0.0343672
      476.500      299486.      352723.    0.0269848
      479.500      299213.      352723.    0.0187483
      482.500      295418.      352723.    0.0145326
      485.500      300367.      352723.    0.0060510
       2     121      9.85000      15      1.00000      0.00000
      128.500      328712.      351147.   -0.0844889
      131.500      336508.      351147.   -0.0839833
      134.500      348417.      351147.   -0.0856303
      137.500      359682.      351147.   -0.0804957
      140.500      370336.      351147.   -0.0620066
      143.500      385985.      351147.   -0.0400308
      146.500      404567.      351147.   -0.0023572
      149.500      408552.      351147.    0.0090682
      152.500      419810.      351147.    0.0341466
      155.500      423372.      351147.    0.0404641
      158.500      425376.      351147.    0.0497477
      161.500      419413.      351147.    0.0490098
      164.500      415889.      351147.    0.0333475
      167.500      403499.      351147.    0.0241148
      170.500      391510.      351147.    0.0159330
      173.500      384759.      351147.    0.0072850
      176.500      386819.      351147.    0.0034967
      179.500      383826.      351147.    0.0064589
      182.500      385277.      351147.    0.0166533
      185.500      399778.      351147.    0.0293534
      188.500      406913.      351147.    0.0368231
      191.500      410396.      351147.    0.0406108
      194.500      425719.      351147.    0.0574747
      197.500      416182.      351147.    0.0333895
      200.500      424996.      351147.    0.0606005
      203.500      411507.      351147.    0.0374064
      206.500      398058.      351147.    0.0189088
      209.500      382101.      351147.   -0.0245550
      212.500      371542.      351147.   -0.0389067
      215.500      345034.      351147.   -0.0964346
      218.500      327557.      351147.   -0.0844889
      221.500      323792.      351147.   -0.0839833
      224.500      313739.      351147.   -0.0856302
      227.500      308790.      351147.   -0.0804956
      230.500      313348.      351147.   -0.0620066
      233.500      315140.      351147.   -0.0400308
      236.500      324627.      351147.   -0.0023571
      239.500      328414.      351147.    0.0090681
      242.500      334474.      351147.    0.0341466
      245.500      333969.      351147.    0.0404641
      248.500      336178.      351147.    0.0497477
      251.500      337817.      351147.    0.0490098
      254.500      327579.      351147.    0.0333474
      257.500      328129.      351147.    0.0241147
      260.500      328678.      351147.    0.0159330
      263.500      324716.      351147.    0.0072850
      266.500      317001.      351147.    0.0034967
      269.500      317089.      351147.    0.0064589
      272.500      318093.      351147.    0.0166533
      275.500      310929.      351147.    0.0293534
      278.500      306110.      351147.    0.0368231
      281.500      301855.      351147.    0.0406109
      284.500      296565.      351147.    0.0574746
      287.500      286016.      351147.    0.0333895
      290.500      291472.      351147.    0.0606005
      293.500      284771.      351147.    0.0374064
      296.500      281051.      351147.    0.0189088
      299.500      265513.      351147.   -0.0245550
      302.500      262762.      351147.   -0.0389067
      305.500      248126.      351147.   -0.0964346
      308.500      328712.      351147.   -0.0844889
      311.500      336508.      351147.   -0.0839833
      314.500      348417.      351147.   -0.0856303
      317.500      359682.      351147.   -0.0804957
      320.500      370336.      351147.   -0.0620066
      323.500      385985.      351147.   -0.0400308
      326.500      404567.      351147.   -0.0023572
      329.500      408552.      351147.    0.0090682
      332.500      419810.      351147.    0.0341466
      335.500      423372.      351147.    0.0404641
      338.500      425376.      351147.    0.0497477
      341.500      419413.      351147.    0.0490098
      344.500      415889.      351147.    0.0333475
      347.500      403499.      351147.    0.0241148
      350.500      391510.      351147.    0.0159330
      353.500      384759.      351147.    0.0072850
      356.500      386819.      351147.    0.0034967
      359.500      383826.      351147.    0.0064589
      360.000      328712.      351147.   -0.0844889
      362.500      385277.      351147.    0.0166533
      365.500      399778.      351147.    0.0293534
      368.500      406913.      351147.    0.0368231
      371.500      410396.      351147.    0.0406108
      374.500      425719.      351147.    0.0574747
      377.500      416182.      351147.    0.0333895
      380.500      424996.      351147.    0.0606005
      383.500      411507.      351147.    0.0374064
      386.500      398058.      351147.    0.0189088
      389.500      382101.      351147.   -0.0245550
      392.500      371542.      351147.   -0.0389067
      395.500      345034.      351147.   -0.0964346
      398.500      327557.      351147.   -0.0844889
      401.500      323792.      351147.   -0.0839833
      404.500      313739.      351147.   -0.0856302
      407.500      308790.      351147.   -0.0804956
      410.500      313348.      351147.   -0.0620066
      413.500      315140.      351147.   -0.0400308
      416.500      324627.      351147.   -0.0023571
      419.500      328414.      351147.    0.0090681
      422.500      334474.      351147.    0.0341466
      425.500      333969.      351147.    0.0404641
      428.500      336178.      351147.    0.0497477
      431.500      337817.      351147.    0.0490098
      434.500      327579.      351147.    0.0333474
      437.500      328129.      351147.    0.0241147
      440.500      328678.      351147.    0.0159330
      443.500      324716.      351147.    0.0072850
      446.500      317001.      351147.    0.0034967
      449.500      317089.      351147.    0.0064589
      452.500      318093.      351147.    0.0166533
      455.500      310929.      351147.    0.0293534
      458.500      306110.      351147.    0.0368231
      461.500      301855.      351147.    0.0406109
      464.500      296565.      351147.    0.0574746
      467.500      286016.      351147.    0.0333895
      470.500      291472.      351147.    0.0606005
      473.500      284771.      351147.    0.0374064
      476.500      281051.      351147.    0.0189088
      479.500      265513.      351147.   -0.0245550
      482.500      262762.      351147.   -0.0389067
      485.500      248126.      351147.   -0.0964346
       3     121      9.85000      18      1.00000      0.00000
      128.500      313086.      358090.   -0.1202601
      131.500      312026.      358090.   -0.1104156
      134.500      305322.      358090.   -0.1090685
      137.500      346218.      358090.   -0.0919339
      140.500      359008.      358090.   -0.0703933
      143.500      359524.      358090.   -0.0331176
      146.500      413043.      358090.    0.0471402
      149.500      425746.      358090.    0.0980575
      152.500      402044.      358090.    0.0774333
      155.500      402564.      358090.    0.0790095
      158.500      402893.      358090.    0.0486935
      161.500      427072.      358090.    0.0923532
      164.500      384835.      358090.   -0.0036815
      167.500      397458.      358090.    0.0592554
      170.500      405080.      358090.    0.0550954
      173.500      381979.      358090.   -0.0085412
      176.500      352965.      358090.   -0.0088789
      179.500      378515.      358090.    0.0209698
      182.500      375527.      358090.    0.0336558
      185.500      385429.      358090.    0.0232917
      188.500      381659.      358090.    0.0176162
      191.500      396300.      358090.    0.0351506
      194.500      424114.      358090.    0.0912251
      197.500      422935.      358090.    0.0379889
      200.500      407399.      358090.    0.0382567
      203.500      377217.      358090.   -0.0107187
      206.500      358357.      358090.   -0.0209015
      209.500      357652.      358090.   -0.0515164
      212.500      344996.      358090.   -0.0917842
      215.500      323960.      358090.   -0.1237201
      218.500      314417.      358090.   -0.1202601
      221.500      326369.      358090.   -0.1104156
      224.500      337152.      358090.   -0.1090685
      227.500      309876.      358090.   -0.0919339
      230.500      314863.      358090.   -0.0703933
      233.500      343033.      358090.   -0.0331175
      236.500      349658.      358090.    0.0471402
      239.500      374792.      358090.    0.0980575
      242.500      383026.      358090.    0.0774333
      245.500      383467.      358090.    0.0790095
      248.500      361448.      358090.    0.0486935
      251.500      368990.      358090.    0.0923532
      254.500      339831.      358090.   -0.0036815
      257.500      370374.      358090.    0.0592554
      260.500      359190.      358090.    0.0550953
      263.500      334702.      358090.   -0.0085412
      266.500      357780.      358090.   -0.0088789
      269.500      353527.      358090.    0.0209698
      272.500      362246.      358090.    0.0336558
      275.500      344659.      358090.    0.0232917
      278.500      341798.      358090.    0.0176163
      281.500      338471.      358090.    0.0351506
      284.500      348918.      358090.    0.0912251
      287.500      313103.      358090.    0.0379888
      290.500      323883.      358090.    0.0382567
      293.500      315503.      358090.   -0.0107187
      296.500      322589.      358090.   -0.0209015
      299.500      301612.      358090.   -0.0515164
      302.500      284750.      358090.   -0.0917842
      305.500      280476.      358090.   -0.1237201
      308.500      313086.      358090.   -0.1202601
      311.500      312026.      358090.   -0.1104156
      314.500      305322.      358090.   -0.1090685
      317.500      346218.      358090.   -0.0919339
      320.500      359008.      358090.   -0.0703933
      323.500      359524.      358090.   -0.0331176
      326.500      413043.      358090.    0.0471402
      329.500      425746.      358090.    0.0980575
      332.500      402044.      358090.    0.0774333
      335.500      402564.      358090.    0.0790095
      338.500      402893.      358090.    0.0486935
      341.500      427072.      358090.    0.0923532
      344.500      384835.      358090.   -0.0036815
      347.500      397458.      358090.    0.0592554
      350.500      405080.      358090.    0.0550954
      353.500      381979.      358090.   -0.0085412
      356.500      352965.      358090.   -0.0088789
      359.500      378515.      358090.    0.0209698
      360.000      313086.      358090.   -0.1202601
      362.500      375527.      358090.    0.0336558
      365.500      385429.      358090.    0.0232917
      368.500      381659.      358090.    0.0176162
      371.500      396300.      358090.    0.0351506
      374.500      424114.      358090.    0.0912251
      377.500      422935.      358090.    0.0379889
      380.500      407399.      358090.    0.0382567
      383.500      377217.      358090.   -0.0107187
      386.500      358357.      358090.   -0.0209015
      389.500      357652.      358090.   -0.0515164
      392.500      344996.      358090.   -0.0917842
      395.500      323960.      358090.   -0.1237201
      398.500      314417.      358090.   -0.1202601
      401.500      326369.      358090.   -0.1104156
      404.500      337152.      358090.   -0.1090685
      407.500      309876.      358090.   -0.0919339
      410.500      314863.      358090.   -0.0703933
      413.500      343033.      358090.   -0.0331175
      416.500      349658.      358090.    0.0471402
      419.500      374792.      358090.    0.0980575
      422.500      383026.      358090.    0.0774333
      425.500      383467.      358090.    0.0790095
      428.500      361448.      358090.    0.0486935
      431.500      368990.      358090.    0.0923532
      434.500      339831.      358090.   -0.0036815
      437.500      370374.      358090.    0.0592554
      440.500      359190.      358090.    0.0550953
      443.500      334702.      358090.   -0.0085412
      446.500      357780.      358090.   -0.0088789
      449.500      353527.      358090.    0.0209698
      452.500      362246.      358090.    0.0336558
      455.500      344659.      358090.    0.0232917
      458.500      341798.      358090.    0.0176163
      461.500      338471.      358090.    0.0351506
      464.500      348918.      358090.    0.0912251
      467.500      313103.      358090.    0.0379888
      470.500      323883.      358090.    0.0382567
      473.500      315503.      358090.   -0.0107187
      476.500      322589.      358090.   -0.0209015
      479.500      301612.      358090.   -0.0515164
      482.500      284750.      358090.   -0.0917842
      485.500      280476.      358090.   -0.1237201
       4     121      9.85000      21      1.00000      0.00000
      128.500      303299.      353893.   -0.0632604
      131.500      324486.      353893.   -0.0361860
      134.500      321921.      353893.   -0.0618034
      137.500      310253.      353893.   -0.0588469
      140.500      316629.      353893.   -0.0479418
      143.500      343488.      353893.   -0.0694408
      146.500      362227.      353893.    0.0191080
      149.500      360554.      353893.    0.0485447
      152.500      385522.      353893.    0.0450198
      155.500      395636.      353893.    0.0077149
      158.500      371847.      353893.    0.0260077
      161.500      387091.      353893.    0.0653168
      164.500      389790.      353893.    0.0627157
      167.500      352635.      353893.   -0.0206941
      170.500      341169.      353893.   -0.0293453
      173.500      373368.      353893.    0.0080551
      176.500      358062.      353893.   -0.0290739
      179.500      379838.      353893.    0.0272544
      182.500      379838.      353893.    0.0632661
      185.500      346078.      353893.   -0.0170097
      188.500      396002.      353893.    0.0807655
      191.500      386784.      353893.    0.0687127
      194.500      406007.      353893.    0.0949577
      197.500      406007.      353893.    0.0743040
      200.500      391188.      353893.    0.0063334
      203.500      367304.      353893.    0.0013782
      206.500      351792.      353893.   -0.0291040
      209.500      333036.      353893.   -0.0810169
      212.500      351934.      353893.   -0.0557576
      215.500      320084.      353893.   -0.1001107
      218.500      337410.      353893.   -0.0632604
      221.500      338245.      353893.   -0.0361861
      224.500      326969.      353893.   -0.0618034
      227.500      345352.      353893.   -0.0588468
      230.500      349457.      353893.   -0.0479418
      233.500      308922.      353893.   -0.0694408
      236.500      355344.      353893.    0.0191080
      239.500      380008.      353893.    0.0485447
      242.500      354396.      353893.    0.0450198
      245.500      319858.      353893.    0.0077149
      248.500      357156.      353893.    0.0260077
      251.500      370761.      353893.    0.0653167
      254.500      367014.      353893.    0.0627157
      257.500      344806.      353893.   -0.0206941
      260.500      349777.      353893.   -0.0293453
      263.500      345476.      353893.    0.0080550
      266.500      334175.      353893.   -0.0290739
      269.500      352511.      353893.    0.0272543
      272.500      376956.      353893.    0.0632661
      275.500      352934.      353893.   -0.0170097
      278.500      373506.      353893.    0.0807655
      281.500      373506.      353893.    0.0687127
      284.500      373506.      353893.    0.0949577
      287.500      359223.      353893.    0.0743040
      290.500      326325.      353893.    0.0063334
      293.500      345046.      353893.    0.0013782
      296.500      338703.      353893.   -0.0291040
      299.500      320794.      353893.   -0.0810169
      302.500      320794.      353893.   -0.0557576
      305.500      320794.      353893.   -0.1001107
      308.500      303299.      353893.   -0.0632604
      311.500      324486.      353893.   -0.0361860
      314.500      321921.      353893.   -0.0618034
      317.500      310253.      353893.   -0.0588469
      320.500      316629.      353893.   -0.0479418
      323.500      343488.      353893.   -0.0694408
      326.500      362227.      353893.    0.0191080
      329.500      360554.      353893.    0.0485447
      332.500      385522.      353893.    0.0450198
      335.500      395636.      353893.    0.0077149
      338.500      371847.      353893.    0.0260077
      341.500      387091.      353893.    0.0653168
      344.500      389790.      353893.    0.0627157
      347.500      352635.      353893.   -0.0206941
      350.500      341169.      353893.   -0.0293453
      353.500      373368.      353893.    0.0080551
      356.500      358062.      353893.   -0.0290739
      359.500      379838.      353893.    0.0272544
      360.000      303299.      353893.   -0.0632604
      362.500      379838.      353893.    0.0632661
      365.500      346078.      353893.   -0.0170097
      368.500      396002.      353893.    0.0807655
      371.500      386784.      353893.    0.0687127
      374.500      406007.      353893.    0.0949577
      377.500      406007.      353893.    0.0743040
      380.500      391188.      353893.    0.0063334
      383.500      367304.      353893.    0.0013782
      386.500      351792.      353893.   -0.0291040
      389.500      333036.      353893.   -0.0810169
      392.500      351934.      353893.   -0.0557576
      395.500      320084.      353893.   -0.1001107
      398.500      337410.      353893.   -0.0632604
      401.500      338245.      353893.   -0.0361861
      404.500      326969.      353893.   -0.0618034
      407.500      345352.      353893.   -0.0588468
      410.500      349457.      353893.   -0.0479418
      413.500      308922.      353893.   -0.0694408
      416.500      355344.      353893.    0.0191080
      419.500      380008.      353893.    0.0485447
      422.500      354396.      353893.    0.0450198
      425.500      319858.      353893.    0.0077149
      428.500      357156.      353893.    0.0260077
      431.500      370761.      353893.    0.0653167
      434.500      367014.      353893.    0.0627157
      437.500      344806.      353893.   -0.0206941
      440.500      349777.      353893.   -0.0293453
      443.500      345476.      353893.    0.0080550
      446.500      334175.      353893.   -0.0290739
      449.500      352511.      353893.    0.0272543
      452.500      376956.      353893.    0.0632661
      455.500      352934.      353893.   -0.0170097
      458.500      373506.      353893.    0.0807655
      461.500      373506.      353893.    0.0687127
      464.500      373506.      353893.    0.0949577
      467.500      359223.      353893.    0.0743040
      470.500      326325.      353893.    0.0063334
      473.500      345046.      353893.    0.0013782
      476.500      338703.      353893.   -0.0291040
      479.500      320794.      353893.   -0.0810169
      482.500      320794.      353893.   -0.0557576
      485.500      320794.      353893.   -0.1001107
       5     121      9.85000      24      1.00000      0.00000
      128.500      284782.      315612.   -0.0437004
      131.500      317024.      315612.    0.0094768
      134.500      302148.      315612.   -0.0470455
      137.500      322914.      315612.   -0.0262681
      140.500      338948.      315612.   -0.0310038
      143.500      312731.      315612.   -0.0365702
      146.500      310465.      315612.   -0.0830189
      149.500      311666.      315612.   -0.0135017
      152.500      314612.      315612.   -0.0213838
      155.500      314612.      315612.    0.0070350
      158.500      359779.      315612.    0.0658796
      161.500      362894.      315612.    0.0808462
      164.500      346178.      315612.    0.0403924
      167.500      355521.      315612.    0.0496044
      170.500      339385.      315612.    0.0359171
      173.500      341850.      315612.    0.0051251
      176.500      332234.      315612.    0.0034219
      179.500      337510.      315612.    0.0196504
      182.500      340400.      315612.    0.0330547
      185.500      341916.      315612.    0.0394157
      188.500      350820.      315612.    0.0413965
      191.500      331291.      315612.    0.0422819
      194.500      322731.      315612.   -0.0012016
      197.500      341969.      315612.    0.0421572
      200.500      333467.      315612.    0.0374575
      203.500      312379.      315612.   -0.0071171
      206.500      308122.      315612.   -0.0312349
      209.500      314609.      315612.   -0.0669043
      212.500      307544.      315612.   -0.0541216
      215.500      292874.      315612.   -0.0894174
      218.500      319447.      315612.   -0.0437004
      221.500      322028.      315612.    0.0094769
      224.500      302509.      315612.   -0.0470454
      227.500      296090.      315612.   -0.0262681
      230.500      278266.      315612.   -0.0310038
      233.500      301324.      315612.   -0.0365702
      236.500      274784.      315612.   -0.0830189
      239.500      317348.      315612.   -0.0135017
      242.500      309550.      315612.   -0.0213838
      245.500      326910.      315612.    0.0070350
      248.500      320449.      315612.    0.0658796
      251.500      326254.      315612.    0.0808462
      254.500      316302.      315612.    0.0403924
      257.500      312556.      315612.    0.0496044
      260.500      318129.      315612.    0.0359170
      263.500      296294.      315612.    0.0051251
      266.500      302987.      315612.    0.0034219
      269.500      306879.      315612.    0.0196503
      272.500      311153.      315612.    0.0330547
      275.500      312396.      315612.    0.0394157
      278.500      304372.      315612.    0.0413965
      281.500      321211.      315612.    0.0422819
      284.500      301938.      315612.   -0.0012016
      287.500      309178.      315612.    0.0421572
      290.500      312907.      315612.    0.0374575
      293.500      304529.      315612.   -0.0071171
      296.500      293196.      315612.   -0.0312349
      299.500      265399.      315612.   -0.0669043
      302.500      278565.      315612.   -0.0541216
      305.500      270419.      315612.   -0.0894175
      308.500      284782.      315612.   -0.0437004
      311.500      317024.      315612.    0.0094768
      314.500      302148.      315612.   -0.0470455
      317.500      322914.      315612.   -0.0262681
      320.500      338948.      315612.   -0.0310038
      323.500      312731.      315612.   -0.0365702
      326.500      310465.      315612.   -0.0830189
      329.500      311666.      315612.   -0.0135017
      332.500      314612.      315612.   -0.0213838
      335.500      314612.      315612.    0.0070350
      338.500      359779.      315612.    0.0658796
      341.500      362894.      315612.    0.0808462
      344.500      346178.      315612.    0.0403924
      347.500      355521.      315612.    0.0496044
      350.500      339385.      315612.    0.0359171
      353.500      341850.      315612.    0.0051251
      356.500      332234.      315612.    0.0034219
      359.500      337510.      315612.    0.0196504
      360.000      284782.      315612.   -0.0437004
      362.500      340400.      315612.    0.0330547
      365.500      341916.      315612.    0.0394157
      368.500      350820.      315612.    0.0413965
      371.500      331291.      315612.    0.0422819
      374.500      322731.      315612.   -0.0012016
      377.500      341969.      315612.    0.0421572
      380.500      333467.      315612.    0.0374575
      383.500      312379.      315612.   -0.0071171
      386.500      308122.      315612.   -0.0312349
      389.500      314609.      315612.   -0.0669043
      392.500      307544.      315612.   -0.0541216
      395.500      292874.      315612.   -0.0894174
      398.500      319447.      315612.   -0.0437004
      401.500      322028.      315612.    0.0094769
      404.500      302509.      315612.   -0.0470454
      407.500      296090.      315612.   -0.0262681
      410.500      278266.      315612.   -0.0310038
      413.500      301324.      315612.   -0.0365702
      416.500      274784.      315612.   -0.0830189
      419.500      317348.      315612.   -0.0135017
      422.500      309550.      315612.   -0.0213838
      425.500      326910.      315612.    0.0070350
      428.500      320449.      315612.    0.0658796
      431.500      326254.      315612.    0.0808462
      434.500      316302.      315612.    0.0403924
      437.500      312556.      315612.    0.0496044
      440.500      318129.      315612.    0.0359170
      443.500      296294.      315612.    0.0051251
      446.500      302987.      315612.    0.0034219
      449.500      306879.      315612.    0.0196503
      452.500      311153.      315612.    0.0330547
      455.500      312396.      315612.    0.0394157
      458.500      304372.      315612.    0.0413965
      461.500      321211.      315612.    0.0422819
      464.500      301938.      315612.   -0.0012016
      467.500      309178.      315612.    0.0421572
      470.500      312907.      315612.    0.0374575
      473.500      304529.      315612.   -0.0071171
      476.500      293196.      315612.   -0.0312349
      479.500      265399.      315612.   -0.0669043
      482.500      278565.      315612.   -0.0541216
      485.500      270419.      315612.   -0.0894175
       6     121      9.85000      27      1.00000      0.00000
      128.500      283221.      280358.   -0.0419839
      131.500      298238.      280358.   -0.0442919
      134.500      297680.      280358.   -0.0236520
      137.500      294037.      280358.   -0.0571406
      140.500      301560.      280358.   -0.0497778
      143.500      298584.      280358.   -0.0388257
      146.500      301889.      280358.   -0.0641207
      149.500      301062.      280358.   -0.0374669
      152.500      306114.      280358.   -0.0267801
      155.500      322628.      280358.   -0.0057831
      158.500      347287.      280358.    0.0448797
      161.500      327892.      280358.   -0.0233123
      164.500      347619.      280358.    0.0867069
      167.500      318053.      280358.    0.0498608
      170.500      322748.      280358.    0.0352519
      173.500      328160.      280358.    0.0726466
      176.500      338038.      280358.    0.0837219
      179.500      334617.      280358.    0.0805122
      182.500      308957.      280358.    0.0501060
      185.500      315845.      280358.    0.0851759
      188.500      303906.      280358.    0.0472149
      191.500      291425.      280358.   -0.0124886
      194.500      300989.      280358.    0.0212670
      197.500      300989.      280358.    0.0215502
      200.500      300989.      280358.    0.0702936
      203.500      244139.      280358.   -0.0781592
      206.500      272015.      280358.   -0.0318201
      209.500      271026.      280358.   -0.0888723
      212.500      271026.      280358.   -0.0291999
      215.500      273271.      280358.   -0.0890717
      218.500      265604.      280358.   -0.0419839
      221.500      251170.      280358.   -0.0442919
      224.500      263226.      280358.   -0.0236520
      227.500      248254.      280358.   -0.0571407
      230.500      245253.      280358.   -0.0497778
      233.500      252897.      280358.   -0.0388257
      236.500      235904.      280358.   -0.0641207
      239.500      249334.      280358.   -0.0374669
      242.500      249334.      280358.   -0.0267801
      245.500      245155.      280358.   -0.0057830
      248.500      249403.      280358.    0.0448797
      251.500      228959.      280358.   -0.0233123
      254.500      266719.      280358.    0.0867069
      257.500      270070.      280358.    0.0498608
      260.500      257343.      280358.    0.0352519
      263.500      269909.      280358.    0.0726466
      266.500      265904.      280358.    0.0837219
      269.500      265556.      280358.    0.0805122
      272.500      269883.      280358.    0.0501060
      275.500      280610.      280358.    0.0851759
      278.500      270714.      280358.    0.0472150
      281.500      250700.      280358.   -0.0124886
      284.500      259217.      280358.    0.0212670
      287.500      259217.      280358.    0.0215502
      290.500      284238.      280358.    0.0702936
      293.500      258810.      280358.   -0.0781592
      296.500      258810.      280358.   -0.0318201
      299.500      230674.      280358.   -0.0888723
      302.500      263838.      280358.   -0.0291999
      305.500      230750.      280358.   -0.0890716
      308.500      283221.      280358.   -0.0419839
      311.500      298238.      280358.   -0.0442919
      314.500      297680.      280358.   -0.0236520
      317.500      294037.      280358.   -0.0571406
      320.500      301560.      280358.   -0.0497778
      323.500      298584.      280358.   -0.0388257
      326.500      301889.      280358.   -0.0641207
      329.500      301062.      280358.   -0.0374669
      332.500      306114.      280358.   -0.0267801
      335.500      322628.      280358.   -0.0057831
      338.500      347287.      280358.    0.0448797
      341.500      327892.      280358.   -0.0233123
      344.500      347619.      280358.    0.0867069
      347.500      318053.      280358.    0.0498608
      350.500      322748.      280358.    0.0352519
      353.500      328160.      280358.    0.0726466
      356.500      338038.      280358.    0.0837219
      359.500      334617.      280358.    0.0805122
      360.000      283221.      280358.   -0.0419839
      362.500      308957.      280358.    0.0501060
      365.500      315845.      280358.    0.0851759
      368.500      303906.      280358.    0.0472149
      371.500      291425.      280358.   -0.0124886
      374.500      300989.      280358.    0.0212670
      377.500      300989.      280358.    0.0215502
      380.500      300989.      280358.    0.0702936
      383.500      244139.      280358.   -0.0781592
      386.500      272015.      280358.   -0.0318201
      389.500      271026.      280358.   -0.0888723
      392.500      271026.      280358.   -0.0291999
      395.500      273271.      280358.   -0.0890717
      398.500      265604.      280358.   -0.0419839
      401.500      251170.      280358.   -0.0442919
      404.500      263226.      280358.   -0.0236520
      407.500      248254.      280358.   -0.0571407
      410.500      245253.      280358.   -0.0497778
      413.500      252897.      280358.   -0.0388257
      416.500      235904.      280358.   -0.0641207
      419.500      249334.      280358.   -0.0374669
      422.500      249334.      280358.   -0.0267801
      425.500      245155.      280358.   -0.0057830
      428.500      249403.      280358.    0.0448797
      431.500      228959.      280358.   -0.0233123
      434.500      266719.      280358.    0.0867069
      437.500      270070.      280358.    0.0498608
      440.500      257343.      280358.    0.0352519
      443.500      269909.      280358.    0.0726466
      446.500      265904.      280358.    0.0837219
      449.500      265556.      280358.    0.0805122
      452.500      269883.      280358.    0.0501060
      455.500      280610.      280358.    0.0851759
      458.500      270714.      280358.    0.0472150
      461.500      250700.      280358.   -0.0124886
      464.500      259217.      280358.    0.0212670
      467.500      259217.      280358.    0.0215502
      470.500      284238.      280358.    0.0702936
      473.500      258810.      280358.   -0.0781592
      476.500      258810.      280358.   -0.0318201
      479.500      230674.      280358.   -0.0888723
      482.500      263838.      280358.   -0.0291999
      485.500      230750.      280358.   -0.0890716
       7     121      9.85000      30      1.00000      0.00000
      128.500      646424.      646984.    0.0248860
      131.500      584378.      646984.   -0.0433932
      134.500      661938.      646984.   -0.0297358
      137.500      651468.      646984.   -0.0401341
      140.500      696352.      646984.   -0.0531083
      143.500      697142.      646984.   -0.0300512
      146.500      675906.      646984.   -0.0257243
      149.500      643777.      646984.   -0.0351561
      152.500      643777.      646984.   -0.0497160
      155.500      649270.      646984.   -0.0456891
      158.500      624960.      646984.   -0.0828058
      161.500      693790.      646984.   -0.0243927
      164.500      721676.      646984.    0.0513069
      167.500      694852.      646984.    0.0437716
      170.500      756015.      646984.    0.0933897
      173.500      744750.      646984.    0.0702692
      176.500      782252.      646984.    0.0929915
      179.500      740363.      646984.    0.0612802
      182.500      761634.      646984.    0.0840894
      185.500      718889.      646984.    0.0460467
      188.500      715748.      646984.    0.0435636
      191.500      706893.      646984.    0.0316681
      194.500      705174.      646984.    0.0371631
      197.500      671907.      646984.    0.0217097
      200.500      671907.      646984.    0.0143470
      203.500      618534.      646984.   -0.0561124
      206.500      648129.      646984.   -0.0359036
      209.500      647643.      646984.   -0.0802745
      212.500      656573.      646984.   -0.0555440
      215.500      648951.      646984.   -0.0269617
      218.500      685134.      646984.    0.0248859
      221.500      663177.      646984.   -0.0433932
      224.500      606078.      646984.   -0.0297358
      227.500      606078.      646984.   -0.0401341
      230.500      547841.      646984.   -0.0531083
      233.500      578888.      646984.   -0.0300512
      236.500      605713.      646984.   -0.0257243
      239.500      623973.      646984.   -0.0351561
      242.500      604969.      646984.   -0.0497160
      245.500      603990.      646984.   -0.0456891
      248.500      578270.      646984.   -0.0828058
      251.500      587264.      646984.   -0.0243927
      254.500      653739.      646984.    0.0513069
      257.500      665517.      646984.    0.0437716
      260.500      669394.      646984.    0.0933897
      263.500      647998.      646984.    0.0702692
      266.500      639621.      646984.    0.0929915
      269.500      634311.      646984.    0.0612802
      272.500      639801.      646984.    0.0840894
      275.500      627652.      646984.    0.0460466
      278.500      623930.      646984.    0.0435636
      281.500      614032.      646984.    0.0316681
      284.500      618681.      646984.    0.0371631
      287.500      625856.      646984.    0.0217097
      290.500      614232.      646984.    0.0143470
      293.500      574785.      646984.   -0.0561124
      296.500      570490.      646984.   -0.0359035
      299.500      516462.      646984.   -0.0802745
      302.500      535684.      646984.   -0.0555440
      305.500      574380.      646984.   -0.0269617
      308.500      646424.      646984.    0.0248860
      311.500      584378.      646984.   -0.0433932
      314.500      661938.      646984.   -0.0297358
      317.500      651468.      646984.   -0.0401341
      320.500      696352.      646984.   -0.0531083
      323.500      697142.      646984.   -0.0300512
      326.500      675906.      646984.   -0.0257243
      329.500      643777.      646984.   -0.0351561
      332.500      643777.      646984.   -0.0497160
      335.500      649270.      646984.   -0.0456891
      338.500      624960.      646984.   -0.0828058
      341.500      693790.      646984.   -0.0243927
      344.500      721676.      646984.    0.0513069
      347.500      694852.      646984.    0.0437716
      350.500      756015.      646984.    0.0933897
      353.500      744750.      646984.    0.0702692
      356.500      782252.      646984.    0.0929915
      359.500      740363.      646984.    0.0612802
      360.000      646424.      646984.    0.0248860
      362.500      761634.      646984.    0.0840894
      365.500      718889.      646984.    0.0460467
      368.500      715748.      646984.    0.0435636
      371.500      706893.      646984.    0.0316681
      374.500      705174.      646984.    0.0371631
      377.500      671907.      646984.    0.0217097
      380.500      671907.      646984.    0.0143470
      383.500      618534.      646984.   -0.0561124
      386.500      648129.      646984.   -0.0359036
      389.500      647643.      646984.   -0.0802745
      392.500      656573.      646984.   -0.0555440
      395.500      648951.      646984.   -0.0269617
      398.500      685134.      646984.    0.0248859
      401.500      663177.      646984.   -0.0433932
      404.500      606078.      646984.   -0.0297358
      407.500      606078.      646984.   -0.0401341
      410.500      547841.      646984.   -0.0531083
      413.500      578888.      646984.   -0.0300512
      416.500      605713.      646984.   -0.0257243
      419.500      623973.      646984.   -0.0351561
      422.500      604969.      646984.   -0.0497160
      425.500      603990.      646984.   -0.0456891
      428.500      578270.      646984.   -0.0828058
      431.500      587264.      646984.   -0.0243927
      434.500      653739.      646984.    0.0513069
      437.500      665517.      646984.    0.0437716
      440.500      669394.      646984.    0.0933897
      443.500      647998.      646984.    0.0702692
      446.500      639621.      646984.    0.0929915
      449.500      634311.      646984.    0.0612802
      452.500      639801.      646984.    0.0840894
      455.500      627652.      646984.    0.0460466
      458.500      623930.      646984.    0.0435636
      461.500      614032.      646984.    0.0316681
      464.500      618681.      646984.    0.0371631
      467.500      625856.      646984.    0.0217097
      470.500      614232.      646984.    0.0143470
      473.500      574785.      646984.   -0.0561124
      476.500      570490.      646984.   -0.0359035
      479.500      516462.      646984.   -0.0802745
      482.500      535684.      646984.   -0.0555440
      485.500      574380.      646984.   -0.0269617
       8     121      9.85000      33      1.00000      0.00000
      128.500      524347.      588733.   -0.0165894
      131.500      541758.      588733.   -0.0152216
      134.500      556036.      588733.    0.0100127
      137.500      572927.      588733.    0.0073518
      140.500      572462.      588733.   -0.0024732
      143.500      557458.      588733.   -0.0104515
      146.500      551839.      588733.   -0.0213362
      149.500      538481.      588733.   -0.0536410
      152.500      585372.      588733.   -0.0000366
      155.500      528800.      588733.   -0.0586344
      158.500      539058.      588733.    0.0021925
      161.500      557467.      588733.   -0.0476546
      164.500      577629.      588733.    0.0183029
      167.500      608682.      588733.    0.0547757
      170.500      627355.      588733.    0.0782136
      173.500      660238.      588733.    0.0846741
      176.500      681837.      588733.    0.1110005
      179.500      637185.      588733.    0.0959182
      182.500      639082.      588733.    0.0699738
      185.500      655033.      588733.    0.0802839
      188.500      627979.      588733.    0.0525239
      191.500      609519.      588733.    0.0223768
      194.500      574418.      588733.   -0.0166143
      197.500      562882.      588733.   -0.0620995
      200.500      532086.      588733.   -0.0520191
      203.500      540199.      588733.   -0.0793571
      206.500      538410.      588733.   -0.0767219
      209.500      526096.      588733.   -0.0875673
      212.500      569455.      588733.   -0.0244103
      215.500      566775.      588733.   -0.0635711
      218.500      625327.      588733.   -0.0165894
      221.500      610051.      588733.   -0.0152216
      224.500      627535.      588733.    0.0100128
      227.500      607964.      588733.    0.0073517
      230.500      598638.      588733.   -0.0024731
      233.500      607424.      588733.   -0.0104514
      236.500      602201.      588733.   -0.0213362
      239.500      578881.      588733.   -0.0536410
      242.500      595730.      588733.   -0.0000367
      245.500      586486.      588733.   -0.0586344
      248.500      651488.      588733.    0.0021925
      251.500      571795.      588733.   -0.0476545
      254.500      632103.      588733.    0.0183029
      257.500      644559.      588733.    0.0547756
      260.500      654008.      588733.    0.0782136
      263.500      627858.      588733.    0.0846741
      266.500      637434.      588733.    0.1110004
      269.500      664726.      588733.    0.0959182
      272.500      630803.      588733.    0.0699738
      275.500      625783.      588733.    0.0802839
      278.500      618263.      588733.    0.0525239
      281.500      598899.      588733.    0.0223768
      284.500      585064.      588733.   -0.0166143
      287.500      540566.      588733.   -0.0620995
      290.500      577960.      588733.   -0.0520191
      293.500      535143.      588733.   -0.0793571
      296.500      535308.      588733.   -0.0767219
      299.500      529494.      588733.   -0.0875673
      302.500      553930.      588733.   -0.0244103
      305.500      507670.      588733.   -0.0635711
      308.500      524347.      588733.   -0.0165894
      311.500      541758.      588733.   -0.0152216
      314.500      556036.      588733.    0.0100127
      317.500      572927.      588733.    0.0073518
      320.500      572462.      588733.   -0.0024732
      323.500      557458.      588733.   -0.0104515
      326.500      551839.      588733.   -0.0213362
      329.500      538481.      588733.   -0.0536410
      332.500      585372.      588733.   -0.0000366
      335.500      528800.      588733.   -0.0586344
      338.500      539058.      588733.    0.0021925
      341.500      557467.      588733.   -0.0476546
      344.500      577629.      588733.    0.0183029
      347.500      608682.      588733.    0.0547757
      350.500      627355.      588733.    0.0782136
      353.500      660238.      588733.    0.0846741
      356.500      681837.      588733.    0.1110005
      359.500      637185.      588733.    0.0959182
      360.000      524347.      588733.   -0.0165894
      362.500      639082.      588733.    0.0699738
      365.500      655033.      588733.    0.0802839
      368.500      627979.      588733.    0.0525239
      371.500      609519.      588733.    0.0223768
      374.500      574418.      588733.   -0.0166143
      377.500      562882.      588733.   -0.0620995
      380.500      532086.      588733.   -0.0520191
      383.500      540199.      588733.   -0.0793571
      386.500      538410.      588733.   -0.0767219
      389.500      526096.      588733.   -0.0875673
      392.500      569455.      588733.   -0.0244103
      395.500      566775.      588733.   -0.0635711
      398.500      625327.      588733.   -0.0165894
      401.500      610051.      588733.   -0.0152216
      404.500      627535.      588733.    0.0100128
      407.500      607964.      588733.    0.0073517
      410.500      598638.      588733.   -0.0024731
      413.500      607424.      588733.   -0.0104514
      416.500      602201.      588733.   -0.0213362
      419.500      578881.      588733.   -0.0536410
      422.500      595730.      588733.   -0.0000367
      425.500      586486.      588733.   -0.0586344
      428.500      651488.      588733.    0.0021925
      431.500      571795.      588733.   -0.0476545
      434.500      632103.      588733.    0.0183029
      437.500      644559.      588733.    0.0547756
      440.500      654008.      588733.    0.0782136
      443.500      627858.      588733.    0.0846741
      446.500      637434.      588733.    0.1110004
      449.500      664726.      588733.    0.0959182
      452.500      630803.      588733.    0.0699738
      455.500      625783.      588733.    0.0802839
      458.500      618263.      588733.    0.0525239
      461.500      598899.      588733.    0.0223768
      464.500      585064.      588733.   -0.0166143
      467.500      540566.      588733.   -0.0620995
      470.500      577960.      588733.   -0.0520191
      473.500      535143.      588733.   -0.0793571
      476.500      535308.      588733.   -0.0767219
      479.500      529494.      588733.   -0.0875673
      482.500      553930.      588733.   -0.0244103
      485.500      507670.      588733.   -0.0635711
       9     121      9.85000      36      1.00000      0.00000
      128.500      511218.      506232.    0.0096251
      131.500      534326.      506232.    0.0637597
      134.500      554948.      506232.    0.0713982
      137.500      563655.      506232.    0.0530582
      140.500      557898.      506232.    0.0411888
      143.500      551446.      506232.    0.0162018
      146.500      543277.      506232.    0.0078297
      149.500      537034.      506232.   -0.0128008
      152.500      518378.      506232.    0.0091121
      155.500      481109.      506232.   -0.0287315
      158.500      467452.      506232.   -0.0421136
      161.500      469542.      506232.   -0.0384692
      164.500      469542.      506232.   -0.0429439
      167.500      509086.      506232.   -0.0061486
      170.500      525791.      506232.    0.0112078
      173.500      517453.      506232.    0.0053525
      176.500      521204.      506232.    0.0129769
      179.500      516724.      506232.    0.0072132
      182.500      517962.      506232.   -0.0078188
      185.500      517535.      506232.   -0.0307542
      188.500      509980.      506232.   -0.0433769
      191.500      496686.      506232.   -0.0356488
      194.500      487007.      506232.   -0.0338915
      197.500      469004.      506232.   -0.0511858
      200.500      460494.      506232.   -0.0559233
      203.500      481829.      506232.   -0.0354055
      206.500      516465.      506232.    0.0053754
      209.500      530731.      506232.    0.0190589
      212.500      561681.      506232.    0.0700647
      215.500      546467.      506232.    0.0636745
      218.500      562111.      506232.    0.0096250
      221.500      592247.      506232.    0.0637597
      224.500      576276.      506232.    0.0713982
      227.500      544795.      506232.    0.0530581
      230.500      534418.      506232.    0.0411888
      233.500      511334.      506232.    0.0162017
      236.500      507549.      506232.    0.0078297
      239.500      489306.      506232.   -0.0128008
      242.500      528027.      506232.    0.0091121
      245.500      523555.      506232.   -0.0287316
      248.500      520875.      506232.   -0.0421135
      251.500      519956.      506232.   -0.0384692
      254.500      512706.      506232.   -0.0429439
      257.500      508019.      506232.   -0.0061486
      260.500      506156.      506232.    0.0112077
      263.500      505477.      506232.    0.0053525
      266.500      506225.      506232.    0.0129770
      269.500      501359.      506232.    0.0072132
      272.500      481466.      506232.   -0.0078188
      275.500      455373.      506232.   -0.0307542
      278.500      446206.      506232.   -0.0433769
      281.500      461749.      506232.   -0.0356488
      284.500      467318.      506232.   -0.0338914
      287.500      461818.      506232.   -0.0511858
      290.500      458806.      506232.   -0.0559234
      293.500      451739.      506232.   -0.0354055
      296.500      450715.      506232.    0.0053754
      299.500      442402.      506232.    0.0190589
      302.500      451576.      506232.    0.0700647
      305.500      448440.      506232.    0.0636745
      308.500      511218.      506232.    0.0096251
      311.500      534326.      506232.    0.0637597
      314.500      554948.      506232.    0.0713982
      317.500      563655.      506232.    0.0530582
      320.500      557898.      506232.    0.0411888
      323.500      551446.      506232.    0.0162018
      326.500      543277.      506232.    0.0078297
      329.500      537034.      506232.   -0.0128008
      332.500      518378.      506232.    0.0091121
      335.500      481109.      506232.   -0.0287315
      338.500      467452.      506232.   -0.0421136
      341.500      469542.      506232.   -0.0384692
      344.500      469542.      506232.   -0.0429439
      347.500      509086.      506232.   -0.0061486
      350.500      525791.      506232.    0.0112078
      353.500      517453.      506232.    0.0053525
      356.500      521204.      506232.    0.0129769
      359.500      516724.      506232.    0.0072132
      360.000      511218.      506232.    0.0096251
      362.500      517962.      506232.   -0.0078188
      365.500      517535.      506232.   -0.0307542
      368.500      509980.      506232.   -0.0433769
      371.500      496686.      506232.   -0.0356488
      374.500      487007.      506232.   -0.0338915
      377.500      469004.      506232.   -0.0511858
      380.500      460494.      506232.   -0.0559233
      383.500      481829.      506232.   -0.0354055
      386.500      516465.      506232.    0.0053754
      389.500      530731.      506232.    0.0190589
      392.500      561681.      506232.    0.0700647
      395.500      546467.      506232.    0.0636745
      398.500      562111.      506232.    0.0096250
      401.500      592247.      506232.    0.0637597
      404.500      576276.      506232.    0.0713982
      407.500      544795.      506232.    0.0530581
      410.500      534418.      506232.    0.0411888
      413.500      511334.      506232.    0.0162017
      416.500      507549.      506232.    0.0078297
      419.500      489306.      506232.   -0.0128008
      422.500      528027.      506232.    0.0091121
      425.500      523555.      506232.   -0.0287316
      428.500      520875.      506232.   -0.0421135
      431.500      519956.      506232.   -0.0384692
      434.500      512706.      506232.   -0.0429439
      437.500      508019.      506232.   -0.0061486
      440.500      506156.      506232.    0.0112077
      443.500      505477.      506232.    0.0053525
      446.500      506225.      506232.    0.0129770
      449.500      501359.      506232.    0.0072132
      452.500      481466.      506232.   -0.0078188
      455.500      455373.      506232.   -0.0307542
      458.500      446206.      506232.   -0.0433769
      461.500      461749.      506232.   -0.0356488
      464.500      467318.      506232.   -0.0338914
      467.500      461818.      506232.   -0.0511858
      470.500      458806.      506232.   -0.0559234
      473.500      451739.      506232.   -0.0354055
      476.500      450715.      506232.    0.0053754
      479.500      442402.      506232.    0.0190589
      482.500      451576.      506232.    0.0700647
      485.500      448440.      506232.    0.0636745
      10     121      9.85000      39      1.00000      0.00000
      128.500      508206.      488891.    0.0024236
      131.500      522374.      488891.    0.0196874
      134.500      531735.      488891.    0.0183035
      137.500      546680.      488891.    0.0210877
      140.500      559828.      488891.    0.0399831
      143.500      561694.      488891.    0.0312406
      146.500      569451.      488891.    0.0467198
      149.500      548637.      488891.    0.0537761
      152.500      524348.      488891.    0.0669008
      155.500      485592.      488891.    0.0218667
      158.500      461080.      488891.   -0.0129695
      161.500      458162.      488891.   -0.0361379
      164.500      481790.      488891.   -0.0171823
      167.500      497554.      488891.   -0.0086729
      170.500      502217.      488891.   -0.0070898
      173.500      484398.      488891.   -0.0403843
      176.500      486832.      488891.   -0.0585316
      179.500      479733.      488891.   -0.0700412
      182.500      485811.      488891.   -0.0610409
      185.500      490304.      488891.   -0.0356080
      188.500      505922.      488891.   -0.0122638
      191.500      492264.      488891.   -0.0011833
      194.500      470973.      488891.   -0.0191720
      197.500      432694.      488891.   -0.0595004
      200.500      443824.      488891.   -0.0526579
      203.500      480207.      488891.   -0.0121227
      206.500      506269.      488891.    0.0121091
      209.500      506269.      488891.    0.0246195
      212.500      529638.      488891.    0.0555940
      215.500      553854.      488891.    0.0920153
      218.500      532807.      488891.    0.0024236
      221.500      532024.      488891.    0.0196874
      224.500      517129.      488891.    0.0183035
      227.500      501179.      488891.    0.0210877
      230.500      502906.      488891.    0.0399831
      233.500      487954.      488891.    0.0312406
      236.500      491562.      488891.    0.0467197
      239.500      514474.      488891.    0.0537761
      242.500      547073.      488891.    0.0669008
      245.500      536539.      488891.    0.0218667
      248.500      522605.      488891.   -0.0129695
      251.500      499319.      488891.   -0.0361379
      254.500      491476.      488891.   -0.0171822
      257.500      480975.      488891.   -0.0086729
      260.500      474484.      488891.   -0.0070898
      263.500      456079.      488891.   -0.0403843
      266.500      432769.      488891.   -0.0585316
      269.500      425058.      488891.   -0.0700412
      272.500      424078.      488891.   -0.0610409
      275.500      439748.      488891.   -0.0356080
      278.500      442445.      488891.   -0.0122639
      281.500      460612.      488891.   -0.0011833
      284.500      458535.      488891.   -0.0191720
      287.500      451338.      488891.   -0.0595004
      290.500      441332.      488891.   -0.0526579
      293.500      438135.      488891.   -0.0121227
      296.500      429322.      488891.    0.0121091
      299.500      432294.      488891.    0.0246194
      302.500      430102.      488891.    0.0555940
      305.500      430756.      488891.    0.0920153
      308.500      508206.      488891.    0.0024236
      311.500      522374.      488891.    0.0196874
      314.500      531735.      488891.    0.0183035
      317.500      546680.      488891.    0.0210877
      320.500      559828.      488891.    0.0399831
      323.500      561694.      488891.    0.0312406
      326.500      569451.      488891.    0.0467198
      329.500      548637.      488891.    0.0537761
      332.500      524348.      488891.    0.0669008
      335.500      485592.      488891.    0.0218667
      338.500      461080.      488891.   -0.0129695
      341.500      458162.      488891.   -0.0361379
      344.500      481790.      488891.   -0.0171823
      347.500      497554.      488891.   -0.0086729
      350.500      502217.      488891.   -0.0070898
      353.500      484398.      488891.   -0.0403843
      356.500      486832.      488891.   -0.0585316
      359.500      479733.      488891.   -0.0700412
      360.000      508206.      488891.    0.0024236
      362.500      485811.      488891.   -0.0610409
      365.500      490304.      488891.   -0.0356080
      368.500      505922.      488891.   -0.0122638
      371.500      492264.      488891.   -0.0011833
      374.500      470973.      488891.   -0.0191720
      377.500      432694.      488891.   -0.0595004
      380.500      443824.      488891.   -0.0526579
      383.500      480207.      488891.   -0.0121227
      386.500      506269.      488891.    0.0121091
      389.500      506269.      488891.    0.0246195
      392.500      529638.      488891.    0.0555940
      395.500      553854.      488891.    0.0920153
      398.500      532807.      488891.    0.0024236
      401.500      532024.      488891.    0.0196874
      404.500      517129.      488891.    0.0183035
      407.500      501179.      488891.    0.0210877
      410.500      502906.      488891.    0.0399831
      413.500      487954.      488891.    0.0312406
      416.500      491562.      488891.    0.0467197
      419.500      514474.      488891.    0.0537761
      422.500      547073.      488891.    0.0669008
      425.500      536539.      488891.    0.0218667
      428.500      522605.      488891.   -0.0129695
      431.500      499319.      488891.   -0.0361379
      434.500      491476.      488891.   -0.0171822
      437.500      480975.      488891.   -0.0086729
      440.500      474484.      488891.   -0.0070898
      443.500      456079.      488891.   -0.0403843
      446.500      432769.      488891.   -0.0585316
      449.500      425058.      488891.   -0.0700412
      452.500      424078.      488891.   -0.0610409
      455.500      439748.      488891.   -0.0356080
      458.500      442445.      488891.   -0.0122639
      461.500      460612.      488891.   -0.0011833
      464.500      458535.      488891.   -0.0191720
      467.500      451338.      488891.   -0.0595004
      470.500      441332.      488891.   -0.0526579
      473.500      438135.      488891.   -0.0121227
      476.500      429322.      488891.    0.0121091
      479.500      432294.      488891.    0.0246194
      482.500      430102.      488891.    0.0555940
      485.500      430756.      488891.    0.0920153
      11     121      9.85000      42      1.00000      0.00000
      128.500      424677.      399116.   -0.0334926
      131.500      431854.      399116.   -0.0275479
      134.500      426134.      399116.   -0.0245613
      137.500      418447.      399116.   -0.0290337
      140.500      440253.      399116.   -0.0005574
      143.500      456544.      399116.    0.0062332
      146.500      458286.      399116.    0.0138893
      149.500      447141.      399116.    0.0400218
      152.500      444205.      399116.    0.0513377
      155.500      415127.      399116.    0.0288830
      158.500      381632.      399116.   -0.0084151
      161.500      372093.      399116.   -0.0172640
      164.500      384989.      399116.    0.0039934
      167.500      406949.      399116.    0.0345403
      170.500      410089.      399116.    0.0336576
      173.500      415230.      399116.   -0.0123401
      176.500      412662.      399116.   -0.0198088
      179.500      412284.      399116.   -0.0282979
      182.500      410488.      399116.   -0.0192339
      185.500      404292.      399116.   -0.0063623
      188.500      403069.      399116.    0.0029146
      191.500      397401.      399116.    0.0180186
      194.500      381763.      399116.    0.0067147
      197.500      367272.      399116.   -0.0278468
      200.500      370609.      399116.   -0.0431305
      203.500      394726.      399116.   -0.0098011
      206.500      412898.      399116.    0.0024704
      209.500      418101.      399116.    0.0146407
      212.500      430302.      399116.    0.0312257
      215.500      417076.      399116.    0.0186480
      218.500      397547.      399116.   -0.0334927
      221.500      391388.      399116.   -0.0275479
      224.500      394778.      399116.   -0.0245613
      227.500      394298.      399116.   -0.0290337
      230.500      393006.      399116.   -0.0005574
      233.500      379232.      399116.    0.0062332
      236.500      380020.      399116.    0.0138893
      239.500      408310.      399116.    0.0400217
      242.500      416940.      399116.    0.0513377
      245.500      424000.      399116.    0.0288830
      248.500      423831.      399116.   -0.0084151
      251.500      423345.      399116.   -0.0172640
      254.500      424983.      399116.    0.0039934
      257.500      424983.      399116.    0.0345403
      260.500      418317.      399116.    0.0336576
      263.500      373973.      399116.   -0.0123400
      266.500      367816.      399116.   -0.0198088
      269.500      358703.      399116.   -0.0282978
      272.500      364579.      399116.   -0.0192339
      275.500      377358.      399116.   -0.0063622
      278.500      382214.      399116.    0.0029146
      281.500      395302.      399116.    0.0180186
      284.500      397313.      399116.    0.0067148
      287.500      380584.      399116.   -0.0278468
      290.500      361651.      399116.   -0.0431305
      293.500      359122.      399116.   -0.0098011
      296.500      346478.      399116.    0.0024704
      299.500      344859.      399116.    0.0146407
      302.500      339728.      399116.    0.0312257
      305.500      335704.      399116.    0.0186480
      308.500      424677.      399116.   -0.0334926
      311.500      431854.      399116.   -0.0275479
      314.500      426134.      399116.   -0.0245613
      317.500      418447.      399116.   -0.0290337
      320.500      440253.      399116.   -0.0005574
      323.500      456544.      399116.    0.0062332
      326.500      458286.      399116.    0.0138893
      329.500      447141.      399116.    0.0400218
      332.500      444205.      399116.    0.0513377
      335.500      415127.      399116.    0.0288830
      338.500      381632.      399116.   -0.0084151
      341.500      372093.      399116.   -0.0172640
      344.500      384989.      399116.    0.0039934
      347.500      406949.      399116.    0.0345403
      350.500      410089.      399116.    0.0336576
      353.500      415230.      399116.   -0.0123401
      356.500      412662.      399116.   -0.0198088
      359.500      412284.      399116.   -0.0282979
      360.000      424677.      399116.   -0.0334926
      362.500      410488.      399116.   -0.0192339
      365.500      404292.      399116.   -0.0063623
      368.500      403069.      399116.    0.0029146
      371.500      397401.      399116.    0.0180186
      374.500      381763.      399116.    0.0067147
      377.500      367272.      399116.   -0.0278468
      380.500      370609.      399116.   -0.0431305
      383.500      394726.      399116.   -0.0098011
      386.500      412898.      399116.    0.0024704
      389.500      418101.      399116.    0.0146407
      392.500      430302.      399116.    0.0312257
      395.500      417076.      399116.    0.0186480
      398.500      397547.      399116.   -0.0334927
      401.500      391388.      399116.   -0.0275479
      404.500      394778.      399116.   -0.0245613
      407.500      394298.      399116.   -0.0290337
      410.500      393006.      399116.   -0.0005574
      413.500      379232.      399116.    0.0062332
      416.500      380020.      399116.    0.0138893
      419.500      408310.      399116.    0.0400217
      422.500      416940.      399116.    0.0513377
      425.500      424000.      399116.    0.0288830
      428.500      423831.      399116.   -0.0084151
      431.500      423345.      399116.   -0.0172640
      434.500      424983.      399116.    0.0039934
      437.500      424983.      399116.    0.0345403
      440.500      418317.      399116.    0.0336576
      443.500      373973.      399116.   -0.0123400
      446.500      367816.      399116.   -0.0198088
      449.500      358703.      399116.   -0.0282978
      452.500      364579.      399116.   -0.0192339
      455.500      377358.      399116.   -0.0063622
      458.500      382214.      399116.    0.0029146
      461.500      395302.      399116.    0.0180186
      464.500      397313.      399116.    0.0067148
      467.500      380584.      399116.   -0.0278468
      470.500      361651.      399116.   -0.0431305
      473.500      359122.      399116.   -0.0098011
      476.500      346478.      399116.    0.0024704
      479.500      344859.      399116.    0.0146407
      482.500      339728.      399116.    0.0312257
      485.500      335704.      399116.    0.0186480
      12     121      9.85000      45      1.00000      0.00000
      128.500      386075.      387646.   -0.0504306
      131.500      399172.      387646.   -0.0403923
      134.500      413186.      387646.   -0.0242694
      137.500      394155.      387646.   -0.0338307
      140.500      389095.      387646.   -0.0203289
      143.500      405907.      387646.   -0.0090954
      146.500      431227.      387646.    0.0239796
      149.500      440011.      387646.    0.0395679
      152.500      415027.      387646.    0.0285549
      155.500      411497.      387646.    0.0282751
      158.500      387745.      387646.   -0.0024022
      161.500      381008.      387646.   -0.0128195
      164.500      387884.      387646.    0.0087071
      167.500      390784.      387646.    0.0013431
      170.500      415599.      387646.    0.0144425
      173.500      450179.      387646.    0.0499928
      176.500      450179.      387646.    0.0583061
      179.500      461651.      387646.    0.0734507
      182.500      456056.      387646.    0.0700940
      185.500      435192.      387646.    0.0312175
      188.500      405715.      387646.   -0.0065611
      191.500      385638.      387646.   -0.0198326
      194.500      373606.      387646.   -0.0193204
      197.500      360983.      387646.   -0.0520004
      200.500      379200.      387646.   -0.0350766
      203.500      380004.      387646.   -0.0319350
      206.500      395794.      387646.   -0.0153823
      209.500      400956.      387646.   -0.0187774
      212.500      407966.      387646.   -0.0058873
      215.500      383950.      387646.   -0.0304876
      218.500      379518.      387646.   -0.0504306
      221.500      373756.      387646.   -0.0403923
      224.500      371896.      387646.   -0.0242694
      227.500      381841.      387646.   -0.0338307
      230.500      396264.      387646.   -0.0203289
      233.500      387501.      387646.   -0.0090954
      236.500      387633.      387646.    0.0239796
      239.500      389863.      387646.    0.0395679
      242.500      403518.      387646.    0.0285549
      245.500      404797.      387646.    0.0282751
      248.500      401616.      387646.   -0.0024022
      251.500      397811.      387646.   -0.0128194
      254.500      405470.      387646.    0.0087071
      257.500      394681.      387646.    0.0013431
      260.500      378992.      387646.    0.0144425
      263.500      371117.      387646.    0.0499928
      266.500      374414.      387646.    0.0583061
      269.500      372096.      387646.    0.0734507
      272.500      371370.      387646.    0.0700940
      275.500      358314.      387646.    0.0312175
      278.500      353628.      387646.   -0.0065611
      281.500      357964.      387646.   -0.0198326
      284.500      364673.      387646.   -0.0193204
      287.500      348450.      387646.   -0.0520004
      290.500      340193.      387646.   -0.0350766
      293.500      337028.      387646.   -0.0319349
      296.500      330158.      387646.   -0.0153823
      299.500      318622.      387646.   -0.0187774
      302.500      316115.      387646.   -0.0058873
      305.500      314037.      387646.   -0.0304876
      308.500      386075.      387646.   -0.0504306
      311.500      399172.      387646.   -0.0403923
      314.500      413186.      387646.   -0.0242694
      317.500      394155.      387646.   -0.0338307
      320.500      389095.      387646.   -0.0203289
      323.500      405907.      387646.   -0.0090954
      326.500      431227.      387646.    0.0239796
      329.500      440011.      387646.    0.0395679
      332.500      415027.      387646.    0.0285549
      335.500      411497.      387646.    0.0282751
      338.500      387745.      387646.   -0.0024022
      341.500      381008.      387646.   -0.0128195
      344.500      387884.      387646.    0.0087071
      347.500      390784.      387646.    0.0013431
      350.500      415599.      387646.    0.0144425
      353.500      450179.      387646.    0.0499928
      356.500      450179.      387646.    0.0583061
      359.500      461651.      387646.    0.0734507
      360.000      386075.      387646.   -0.0504306
      362.500      456056.      387646.    0.0700940
      365.500      435192.      387646.    0.0312175
      368.500      405715.      387646.   -0.0065611
      371.500      385638.      387646.   -0.0198326
      374.500      373606.      387646.   -0.0193204
      377.500      360983.      387646.   -0.0520004
      380.500      379200.      387646.   -0.0350766
      383.500      380004.      387646.   -0.0319350
      386.500      395794.      387646.   -0.0153823
      389.500      400956.      387646.   -0.0187774
      392.500      407966.      387646.   -0.0058873
      395.500      383950.      387646.   -0.0304876
      398.500      379518.      387646.   -0.0504306
      401.500      373756.      387646.   -0.0403923
      404.500      371896.      387646.   -0.0242694
      407.500      381841.      387646.   -0.0338307
      410.500      396264.      387646.   -0.0203289
      413.500      387501.      387646.   -0.0090954
      416.500      387633.      387646.    0.0239796
      419.500      389863.      387646.    0.0395679
      422.500      403518.      387646.    0.0285549
      425.500      404797.      387646.    0.0282751
      428.500      401616.      387646.   -0.0024022
      431.500      397811.      387646.   -0.0128194
      434.500      405470.      387646.    0.0087071
      437.500      394681.      387646.    0.0013431
      440.500      378992.      387646.    0.0144425
      443.500      371117.      387646.    0.0499928
      446.500      374414.      387646.    0.0583061
      449.500      372096.      387646.    0.0734507
      452.500      371370.      387646.    0.0700940
      455.500      358314.      387646.    0.0312175
      458.500      353628.      387646.   -0.0065611
      461.500      357964.      387646.   -0.0198326
      464.500      364673.      387646.   -0.0193204
      467.500      348450.      387646.   -0.0520004
      470.500      340193.      387646.   -0.0350766
      473.500      337028.      387646.   -0.0319349
      476.500      330158.      387646.   -0.0153823
      479.500      318622.      387646.   -0.0187774
      482.500      316115.      387646.   -0.0058873
      485.500      314037.      387646.   -0.0304876
      13     121      9.85000      48      1.00000      0.00000
      128.500      347209.      357321.   -0.0532510
      131.500      360836.      357321.   -0.0241294
      134.500      349286.      357321.   -0.0450051
      137.500      350922.      357321.   -0.0448962
      140.500      351159.      357321.   -0.0343882
      143.500      352264.      357321.   -0.0394362
      146.500      372068.      357321.   -0.0101376
      149.500      372246.      357321.   -0.0087667
      152.500      371080.      357321.    0.0107939
      155.500      358476.      357321.    0.0020174
      158.500      354805.      357321.   -0.0078109
      161.500      346542.      357321.   -0.0199193
      164.500      362929.      357321.    0.0294670
      167.500      378182.      357321.    0.0525358
      170.500      398617.      357321.    0.0784033
      173.500      407320.      357321.    0.0834424
      176.500      397219.      357321.    0.0749467
      179.500      389240.      357321.    0.0543893
      182.500      388978.      357321.    0.0668183
      185.500      385545.      357321.    0.0656134
      188.500      390220.      357321.    0.0591505
      191.500      380925.      357321.    0.0519145
      194.500      344721.      357321.   -0.0229786
      197.500      334399.      357321.   -0.0494102
      200.500      337965.      357321.   -0.0542842
      203.500      342714.      357321.   -0.0376645
      206.500      347757.      357321.   -0.0279970
      209.500      346813.      357321.   -0.0519734
      212.500      362878.      357321.   -0.0366656
      215.500      347025.      357321.   -0.0620629
      218.500      344076.      357321.   -0.0532510
      221.500      351123.      357321.   -0.0241294
      224.500      346974.      357321.   -0.0450051
      227.500      344891.      357321.   -0.0448962
      230.500      351848.      357321.   -0.0343882
      233.500      346512.      357321.   -0.0394362
      236.500      347367.      357321.   -0.0101376
      239.500      347620.      357321.   -0.0087667
      242.500      362433.      357321.    0.0107939
      245.500      368022.      357321.    0.0020174
      248.500      363787.      357321.   -0.0078109
      251.500      362419.      357321.   -0.0199193
      254.500      380737.      357321.    0.0294670
      257.500      381067.      357321.    0.0525358
      260.500      378184.      357321.    0.0784033
      263.500      371885.      357321.    0.0834423
      266.500      374222.      357321.    0.0749467
      269.500      365795.      357321.    0.0543893
      272.500      372928.      357321.    0.0668183
      275.500      373303.      357321.    0.0656134
      278.500      362147.      357321.    0.0591505
      281.500      363478.      357321.    0.0519145
      284.500      343539.      357321.   -0.0229786
      287.500      332445.      357321.   -0.0494102
      290.500      323002.      357321.   -0.0542842
      293.500      326575.      357321.   -0.0376645
      296.500      324966.      357321.   -0.0279970
      299.500      306628.      357321.   -0.0519734
      302.500      298656.      357321.   -0.0366656
      305.500      292264.      357321.   -0.0620629
      308.500      347209.      357321.   -0.0532510
      311.500      360836.      357321.   -0.0241294
      314.500      349286.      357321.   -0.0450051
      317.500      350922.      357321.   -0.0448962
      320.500      351159.      357321.   -0.0343882
      323.500      352264.      357321.   -0.0394362
      326.500      372068.      357321.   -0.0101376
      329.500      372246.      357321.   -0.0087667
      332.500      371080.      357321.    0.0107939
      335.500      358476.      357321.    0.0020174
      338.500      354805.      357321.   -0.0078109
      341.500      346542.      357321.   -0.0199193
      344.500      362929.      357321.    0.0294670
      347.500      378182.      357321.    0.0525358
      350.500      398617.      357321.    0.0784033
      353.500      407320.      357321.    0.0834424
      356.500      397219.      357321.    0.0749467
      359.500      389240.      357321.    0.0543893
      360.000      347209.      357321.   -0.0532510
      362.500      388978.      357321.    0.0668183
      365.500      385545.      357321.    0.0656134
      368.500      390220.      357321.    0.0591505
      371.500      380925.      357321.    0.0519145
      374.500      344721.      357321.   -0.0229786
      377.500      334399.      357321.   -0.0494102
      380.500      337965.      357321.   -0.0542842
      383.500      342714.      357321.   -0.0376645
      386.500      347757.      357321.   -0.0279970
      389.500      346813.      357321.   -0.0519734
      392.500      362878.      357321.   -0.0366656
      395.500      347025.      357321.   -0.0620629
      398.500      344076.      357321.   -0.0532510
      401.500      351123.      357321.   -0.0241294
      404.500      346974.      357321.   -0.0450051
      407.500      344891.      357321.   -0.0448962
      410.500      351848.      357321.   -0.0343882
      413.500      346512.      357321.   -0.0394362
      416.500      347367.      357321.   -0.0101376
      419.500      347620.      357321.   -0.0087667
      422.500      362433.      357321.    0.0107939
      425.500      368022.      357321.    0.0020174
      428.500      363787.      357321.   -0.0078109
      431.500      362419.      357321.   -0.0199193
      434.500      380737.      357321.    0.0294670
      437.500      381067.      357321.    0.0525358
      440.500      378184.      357321.    0.0784033
      443.500      371885.      357321.    0.0834423
      446.500      374222.      357321.    0.0749467
      449.500      365795.      357321.    0.0543893
      452.500      372928.      357321.    0.0668183
      455.500      373303.      357321.    0.0656134
      458.500      362147.      357321.    0.0591505
      461.500      363478.      357321.    0.0519145
      464.500      343539.      357321.   -0.0229786
      467.500      332445.      357321.   -0.0494102
      470.500      323002.      357321.   -0.0542842
      473.500      326575.      357321.   -0.0376645
      476.500      324966.      357321.   -0.0279970
      479.500      306628.      357321.   -0.0519734
      482.500      298656.      357321.   -0.0366656
      485.500      292264.      357321.   -0.0620629
      14     121      9.85000      51      1.00000      0.00000
      128.500      305638.      308222.   -0.0436185
      131.500      307926.      308222.   -0.0335813
      134.500      305825.      308222.   -0.0430347
      137.500      303038.      308222.   -0.0351998
      140.500      315606.      308222.   -0.0205695
      143.500      321642.      308222.   -0.0019093
      146.500      320772.      308222.    0.0012018
      149.500      317032.      308222.   -0.0172321
      152.500      314061.      308222.   -0.0192005
      155.500      301274.      308222.   -0.0413585
      158.500      302677.      308222.   -0.0506954
      161.500      308794.      308222.   -0.0422016
      164.500      316396.      308222.    0.0171806
      167.500      340390.      308222.    0.0665139
      170.500      361804.      308222.    0.1383727
      173.500      356072.      308222.    0.1151954
      176.500      336811.      308222.    0.0750873
      179.500      325197.      308222.    0.0542308
      182.500      319983.      308222.    0.0508558
      185.500      345750.      308222.    0.0803269
      188.500      350245.      308222.    0.1073096
      191.500      327903.      308222.    0.0630559
      194.500      311613.      308222.    0.0127796
      197.500      299035.      308222.   -0.0532386
      200.500      287110.      308222.   -0.0751875
      203.500      287895.      308222.   -0.0864738
      206.500      291347.      308222.   -0.0750734
      209.500      290750.      308222.   -0.0738966
      212.500      300724.      308222.   -0.0393302
      215.500      300636.      308222.   -0.0315020
      218.500      299504.      308222.   -0.0436185
      221.500      302893.      308222.   -0.0335813
      224.500      298368.      308222.   -0.0430347
      227.500      305428.      308222.   -0.0351998
      230.500      301440.      308222.   -0.0205695
      233.500      306465.      308222.   -0.0019093
      236.500      308563.      308222.    0.0012018
      239.500      299996.      308222.   -0.0172321
      242.500      300942.      308222.   -0.0192005
      245.500      298968.      308222.   -0.0413585
      248.500      290924.      308222.   -0.0506954
      251.500      289265.      308222.   -0.0422016
      254.500      317458.      308222.    0.0171806
      257.500      323214.      308222.    0.0665139
      260.500      345104.      308222.    0.1383727
      263.500      335050.      308222.    0.1151954
      266.500      327690.      308222.    0.0750873
      269.500      324548.      308222.    0.0542308
      272.500      325677.      308222.    0.0508558
      275.500      316987.      308222.    0.0803269
      278.500      326670.      308222.    0.1073097
      281.500      319150.      308222.    0.0630560
      284.500      302458.      308222.    0.0127796
      287.500      273356.      308222.   -0.0532385
      290.500      269154.      308222.   -0.0751875
      293.500      259479.      308222.   -0.0864737
      296.500      260124.      308222.   -0.0750734
      299.500      258401.      308222.   -0.0738965
      302.500      265595.      308222.   -0.0393302
      305.500      266486.      308222.   -0.0315020
      308.500      305638.      308222.   -0.0436185
      311.500      307926.      308222.   -0.0335813
      314.500      305825.      308222.   -0.0430347
      317.500      303038.      308222.   -0.0351998
      320.500      315606.      308222.   -0.0205695
      323.500      321642.      308222.   -0.0019093
      326.500      320772.      308222.    0.0012018
      329.500      317032.      308222.   -0.0172321
      332.500      314061.      308222.   -0.0192005
      335.500      301274.      308222.   -0.0413585
      338.500      302677.      308222.   -0.0506954
      341.500      308794.      308222.   -0.0422016
      344.500      316396.      308222.    0.0171806
      347.500      340390.      308222.    0.0665139
      350.500      361804.      308222.    0.1383727
      353.500      356072.      308222.    0.1151954
      356.500      336811.      308222.    0.0750873
      359.500      325197.      308222.    0.0542308
      360.000      305638.      308222.   -0.0436185
      362.500      319983.      308222.    0.0508558
      365.500      345750.      308222.    0.0803269
      368.500      350245.      308222.    0.1073096
      371.500      327903.      308222.    0.0630559
      374.500      311613.      308222.    0.0127796
      377.500      299035.      308222.   -0.0532386
      380.500      287110.      308222.   -0.0751875
      383.500      287895.      308222.   -0.0864738
      386.500      291347.      308222.   -0.0750734
      389.500      290750.      308222.   -0.0738966
      392.500      300724.      308222.   -0.0393302
      395.500      300636.      308222.   -0.0315020
      398.500      299504.      308222.   -0.0436185
      401.500      302893.      308222.   -0.0335813
      404.500      298368.      308222.   -0.0430347
      407.500      305428.      308222.   -0.0351998
      410.500      301440.      308222.   -0.0205695
      413.500      306465.      308222.   -0.0019093
      416.500      308563.      308222.    0.0012018
      419.500      299996.      308222.   -0.0172321
      422.500      300942.      308222.   -0.0192005
      425.500      298968.      308222.   -0.0413585
      428.500      290924.      308222.   -0.0506954
      431.500      289265.      308222.   -0.0422016
      434.500      317458.      308222.    0.0171806
      437.500      323214.      308222.    0.0665139
      440.500      345104.      308222.    0.1383727
      443.500      335050.      308222.    0.1151954
      446.500      327690.      308222.    0.0750873
      449.500      324548.      308222.    0.0542308
      452.500      325677.      308222.    0.0508558
      455.500      316987.      308222.    0.0803269
      458.500      326670.      308222.    0.1073097
      461.500      319150.      308222.    0.0630560
      464.500      302458.      308222.    0.0127796
      467.500      273356.      308222.   -0.0532385
      470.500      269154.      308222.   -0.0751875
      473.500      259479.      308222.   -0.0864737
      476.500      260124.      308222.   -0.0750734
      479.500      258401.      308222.   -0.0738965
      482.500      265595.      308222.   -0.0393302
      485.500      266486.      308222.   -0.0315020
      15     121      9.85000      54      1.00000      0.00000
      128.500      254972.      269018.   -0.0621956
      131.500      270625.      269018.   -0.0149447
      134.500      275584.      269018.   -0.0212151
      137.500      282268.      269018.   -0.0067446
      140.500      287937.      269018.    0.0275613
      143.500      280383.      269018.    0.0022372
      146.500      275828.      269018.    0.0049034
      149.500      257716.      269018.   -0.0569165
      152.500      257511.      269018.   -0.0560283
      155.500      253503.      269018.   -0.0861010
      158.500      267604.      269018.   -0.0400445
      161.500      291458.      269018.    0.0284070
      164.500      272744.      269018.    0.0056479
      167.500      288226.      269018.    0.0605056
      170.500      312262.      269018.    0.1039708
      173.500      309337.      269018.    0.1055301
      176.500      304635.      269018.    0.0897312
      179.500      300122.      269018.    0.0872422
      182.500      297170.      269018.    0.0789997
      185.500      308974.      269018.    0.0981931
      188.500      309377.      269018.    0.0916354
      191.500      293724.      269018.    0.0655332
      194.500      265820.      269018.   -0.0142498
      197.500      268938.      269018.   -0.0210441
      200.500      265828.      269018.   -0.0429399
      203.500      247560.      269018.   -0.1065305
      206.500      234720.      269018.   -0.1264095
      209.500      237286.      269018.   -0.1200690
      212.500      248357.      269018.   -0.0601646
      215.500      263182.      269018.   -0.0159450
      218.500      263787.      269018.   -0.0621957
      221.500      273811.      269018.   -0.0149447
      224.500      264912.      269018.   -0.0212151
      227.500      265734.      269018.   -0.0067447
      230.500      278458.      269018.    0.0275614
      233.500      271495.      269018.    0.0022373
      236.500      276881.      269018.    0.0049034
      239.500      260354.      269018.   -0.0569165
      242.500      260354.      269018.   -0.0560283
      245.500      247206.      269018.   -0.0861010
      248.500      257550.      269018.   -0.0400446
      251.500      270312.      269018.    0.0284070
      254.500      275234.      269018.    0.0056479
      257.500      288456.      269018.    0.0605056
      260.500      287180.      269018.    0.1039708
      263.500      289376.      269018.    0.1055301
      266.500      283966.      269018.    0.0897312
      269.500      285238.      269018.    0.0872422
      272.500      281888.      269018.    0.0789997
      275.500      278859.      269018.    0.0981931
      278.500      273032.      269018.    0.0916354
      281.500      271842.      269018.    0.0655332
      284.500      254591.      269018.   -0.0142498
      287.500      245991.      269018.   -0.0210440
      290.500      235437.      269018.   -0.0429399
      293.500      217881.      269018.   -0.1065305
      296.500      216828.      269018.   -0.1264095
      299.500      214865.      269018.   -0.1200690
      302.500      230626.      269018.   -0.0601646
      305.500      235309.      269018.   -0.0159450
      308.500      254972.      269018.   -0.0621956
      311.500      270625.      269018.   -0.0149447
      314.500      275584.      269018.   -0.0212151
      317.500      282268.      269018.   -0.0067446
      320.500      287937.      269018.    0.0275613
      323.500      280383.      269018.    0.0022372
      326.500      275828.      269018.    0.0049034
      329.500      257716.      269018.   -0.0569165
      332.500      257511.      269018.   -0.0560283
      335.500      253503.      269018.   -0.0861010
      338.500      267604.      269018.   -0.0400445
      341.500      291458.      269018.    0.0284070
      344.500      272744.      269018.    0.0056479
      347.500      288226.      269018.    0.0605056
      350.500      312262.      269018.    0.1039708
      353.500      309337.      269018.    0.1055301
      356.500      304635.      269018.    0.0897312
      359.500      300122.      269018.    0.0872422
      360.000      254972.      269018.   -0.0621956
      362.500      297170.      269018.    0.0789997
      365.500      308974.      269018.    0.0981931
      368.500      309377.      269018.    0.0916354
      371.500      293724.      269018.    0.0655332
      374.500      265820.      269018.   -0.0142498
      377.500      268938.      269018.   -0.0210441
      380.500      265828.      269018.   -0.0429399
      383.500      247560.      269018.   -0.1065305
      386.500      234720.      269018.   -0.1264095
      389.500      237286.      269018.   -0.1200690
      392.500      248357.      269018.   -0.0601646
      395.500      263182.      269018.   -0.0159450
      398.500      263787.      269018.   -0.0621957
      401.500      273811.      269018.   -0.0149447
      404.500      264912.      269018.   -0.0212151
      407.500      265734.      269018.   -0.0067447
      410.500      278458.      269018.    0.0275614
      413.500      271495.      269018.    0.0022373
      416.500      276881.      269018.    0.0049034
      419.500      260354.      269018.   -0.0569165
      422.500      260354.      269018.   -0.0560283
      425.500      247206.      269018.   -0.0861010
      428.500      257550.      269018.   -0.0400446
      431.500      270312.      269018.    0.0284070
      434.500      275234.      269018.    0.0056479
      437.500      288456.      269018.    0.0605056
      440.500      287180.      269018.    0.1039708
      443.500      289376.      269018.    0.1055301
      446.500      283966.      269018.    0.0897312
      449.500      285238.      269018.    0.0872422
      452.500      281888.      269018.    0.0789997
      455.500      278859.      269018.    0.0981931
      458.500      273032.      269018.    0.0916354
      461.500      271842.      269018.    0.0655332
      464.500      254591.      269018.   -0.0142498
      467.500      245991.      269018.   -0.0210440
      470.500      235437.      269018.   -0.0429399
      473.500      217881.      269018.   -0.1065305
      476.500      216828.      269018.   -0.1264095
      479.500      214865.      269018.   -0.1200690
      482.500      230626.      269018.   -0.0601646
      485.500      235309.      269018.   -0.0159450
      16     121      9.85000      57      1.00000      0.00000
      128.500      214141.      220240.   -0.0391578
      131.500      210043.      220240.   -0.0167217
      134.500      218697.      220240.   -0.0224619
      137.500      218697.      220240.   -0.0386006
      140.500      232715.      220240.   -0.0024595
      143.500      225658.      220240.   -0.0077781
      146.500      217219.      220240.   -0.0374703
      149.500      204419.      220240.   -0.0978012
      152.500      200058.      220240.   -0.0965417
      155.500      212331.      220240.   -0.0848858
      158.500      230461.      220240.   -0.0150485
      161.500      230617.      220240.   -0.0127116
      164.500      230117.      220240.    0.0266079
      167.500      242829.      220240.    0.0781982
      170.500      245898.      220240.    0.1216452
      173.500      244151.      220240.    0.1366685
      176.500      252202.      220240.    0.1400948
      179.500      246844.      220240.    0.1223045
      182.500      247797.      220240.    0.1208479
      185.500      241397.      220240.    0.0877467
      188.500      240934.      220240.    0.0869782
      191.500      231597.      220240.    0.0573717
      194.500      220098.      220240.    0.0064880
      197.500      221088.      220240.   -0.0331691
      200.500      223610.      220240.   -0.0320845
      203.500      213241.      220240.   -0.0647071
      206.500      195501.      220240.   -0.1321263
      209.500      195897.      220240.   -0.1305338
      212.500      205582.      220240.   -0.0704499
      215.500      210040.      220240.   -0.0532719
      218.500      219835.      220240.   -0.0391578
      221.500      233844.      220240.   -0.0167217
      224.500      221959.      220240.   -0.0224619
      227.500      214213.      220240.   -0.0386006
      230.500      215934.      220240.   -0.0024595
      233.500      220395.      220240.   -0.0077781
      236.500      215176.      220240.   -0.0374703
      239.500      200508.      220240.   -0.0978012
      242.500      205173.      220240.   -0.0965418
      245.500      197522.      220240.   -0.0848858
      248.500      210181.      220240.   -0.0150485
      251.500      210572.      220240.   -0.0127116
      254.500      228119.      220240.    0.0266079
      257.500      237678.      220240.    0.0781982
      260.500      253051.      220240.    0.1216452
      263.500      260358.      220240.    0.1366685
      266.500      252738.      220240.    0.1400948
      269.500      248869.      220240.    0.1223045
      272.500      245846.      220240.    0.1208479
      275.500      236126.      220240.    0.0877467
      278.500      234485.      220240.    0.0869782
      281.500      228796.      220240.    0.0573717
      284.500      216100.      220240.    0.0064880
      287.500      196694.      220240.   -0.0331691
      290.500      192680.      220240.   -0.0320845
      293.500      186392.      220240.   -0.0647072
      296.500      172660.      220240.   -0.1321263
      299.500      170359.      220240.   -0.1305337
      302.500      182369.      220240.   -0.0704499
      305.500      181865.      220240.   -0.0532719
      308.500      214141.      220240.   -0.0391578
      311.500      210043.      220240.   -0.0167217
      314.500      218697.      220240.   -0.0224619
      317.500      218697.      220240.   -0.0386006
      320.500      232715.      220240.   -0.0024595
      323.500      225658.      220240.   -0.0077781
      326.500      217219.      220240.   -0.0374703
      329.500      204419.      220240.   -0.0978012
      332.500      200058.      220240.   -0.0965417
      335.500      212331.      220240.   -0.0848858
      338.500      230461.      220240.   -0.0150485
      341.500      230617.      220240.   -0.0127116
      344.500      230117.      220240.    0.0266079
      347.500      242829.      220240.    0.0781982
      350.500      245898.      220240.    0.1216452
      353.500      244151.      220240.    0.1366685
      356.500      252202.      220240.    0.1400948
      359.500      246844.      220240.    0.1223045
      360.000      214141.      220240.   -0.0391578
      362.500      247797.      220240.    0.1208479
      365.500      241397.      220240.    0.0877467
      368.500      240934.      220240.    0.0869782
      371.500      231597.      220240.    0.0573717
      374.500      220098.      220240.    0.0064880
      377.500      221088.      220240.   -0.0331691
      380.500      223610.      220240.   -0.0320845
      383.500      213241.      220240.   -0.0647071
      386.500      195501.      220240.   -0.1321263
      389.500      195897.      220240.   -0.1305338
      392.500      205582.      220240.   -0.0704499
      395.500      210040.      220240.   -0.0532719
      398.500      219835.      220240.   -0.0391578
      401.500      233844.      220240.   -0.0167217
      404.500      221959.      220240.   -0.0224619
      407.500      214213.      220240.   -0.0386006
      410.500      215934.      220240.   -0.0024595
      413.500      220395.      220240.   -0.0077781
      416.500      215176.      220240.   -0.0374703
      419.500      200508.      220240.   -0.0978012
      422.500      205173.      220240.   -0.0965418
      425.500      197522.      220240.   -0.0848858
      428.500      210181.      220240.   -0.0150485
      431.500      210572.      220240.   -0.0127116
      434.500      228119.      220240.    0.0266079
      437.500      237678.      220240.    0.0781982
      440.500      253051.      220240.    0.1216452
      443.500      260358.      220240.    0.1366685
      446.500      252738.      220240.    0.1400948
      449.500      248869.      220240.    0.1223045
      452.500      245846.      220240.    0.1208479
      455.500      236126.      220240.    0.0877467
      458.500      234485.      220240.    0.0869782
      461.500      228796.      220240.    0.0573717
      464.500      216100.      220240.    0.0064880
      467.500      196694.      220240.   -0.0331691
      470.500      192680.      220240.   -0.0320845
      473.500      186392.      220240.   -0.0647072
      476.500      172660.      220240.   -0.1321263
      479.500      170359.      220240.   -0.1305337
      482.500      182369.      220240.   -0.0704499
      485.500      181865.      220240.   -0.0532719
      17     121      9.85000      60      1.00000      0.00000
      128.500      174895.      181628.   -0.0674967
      131.500      169776.      181628.   -0.0501856
      134.500      182739.      181628.   -0.0105837
      137.500      191046.      181628.   -0.0186597
      140.500      192663.      181628.   -0.0115794
      143.500      181446.      181628.   -0.0474307
      146.500      175265.      181628.   -0.0524995
      149.500      172077.      181628.   -0.0849276
      152.500      174165.      181628.   -0.0740347
      155.500      169231.      181628.   -0.0900381
      158.500      194242.      181628.   -0.0046834
      161.500      194898.      181628.    0.0157118
      164.500      190051.      181628.    0.0029599
      167.500      193980.      181628.    0.0298818
      170.500      199178.      181628.    0.0928855
      173.500      200408.      181628.    0.1185410
      176.500      201943.      181628.    0.1228595
      179.500      198781.      181628.    0.1403346
      182.500      199879.      181628.    0.1192769
      185.500      197725.      181628.    0.1316491
      188.500      199827.      181628.    0.1173909
      191.500      190438.      181628.    0.0749506
      194.500      179240.      181628.   -0.0138042
      197.500      182714.      181628.   -0.0202595
      200.500      187248.      181628.   -0.0045760
      203.500      178232.      181628.   -0.0458985
      206.500      178232.      181628.   -0.0745050
      209.500      165311.      181628.   -0.1069005
      212.500      160972.      181628.   -0.1098778
      215.500      167172.      181628.   -0.0798817
      218.500      170734.      181628.   -0.0674967
      221.500      181888.      181628.   -0.0501856
      224.500      183191.      181628.   -0.0105836
      227.500      171480.      181628.   -0.0186597
      230.500      172120.      181628.   -0.0115795
      233.500      169809.      181628.   -0.0474307
      236.500      173847.      181628.   -0.0524995
      239.500      164761.      181628.   -0.0849275
      242.500      166373.      181628.   -0.0740347
      245.500      165121.      181628.   -0.0900381
      248.500      171075.      181628.   -0.0046834
      251.500      177542.      181628.    0.0157118
      254.500      177316.      181628.    0.0029600
      257.500      182798.      181628.    0.0298818
      260.500      200084.      181628.    0.0928855
      263.500      207581.      181628.    0.1185410
      266.500      206950.      181628.    0.1228595
      269.500      215586.      181628.    0.1403346
      272.500      206107.      181628.    0.1192769
      275.500      211692.      181628.    0.1316491
      278.500      203584.      181628.    0.1173910
      281.500      196525.      181628.    0.0749506
      284.500      174946.      181628.   -0.0138042
      287.500      168316.      181628.   -0.0202595
      290.500      168316.      181628.   -0.0045760
      293.500      161248.      181628.   -0.0458985
      296.500      150219.      181628.   -0.0745049
      299.500      149703.      181628.   -0.1069005
      302.500      151122.      181628.   -0.1098778
      305.500      153846.      181628.   -0.0798816
      308.500      174895.      181628.   -0.0674967
      311.500      169776.      181628.   -0.0501856
      314.500      182739.      181628.   -0.0105837
      317.500      191046.      181628.   -0.0186597
      320.500      192663.      181628.   -0.0115794
      323.500      181446.      181628.   -0.0474307
      326.500      175265.      181628.   -0.0524995
      329.500      172077.      181628.   -0.0849276
      332.500      174165.      181628.   -0.0740347
      335.500      169231.      181628.   -0.0900381
      338.500      194242.      181628.   -0.0046834
      341.500      194898.      181628.    0.0157118
      344.500      190051.      181628.    0.0029599
      347.500      193980.      181628.    0.0298818
      350.500      199178.      181628.    0.0928855
      353.500      200408.      181628.    0.1185410
      356.500      201943.      181628.    0.1228595
      359.500      198781.      181628.    0.1403346
      360.000      174895.      181628.   -0.0674967
      362.500      199879.      181628.    0.1192769
      365.500      197725.      181628.    0.1316491
      368.500      199827.      181628.    0.1173909
      371.500      190438.      181628.    0.0749506
      374.500      179240.      181628.   -0.0138042
      377.500      182714.      181628.   -0.0202595
      380.500      187248.      181628.   -0.0045760
      383.500      178232.      181628.   -0.0458985
      386.500      178232.      181628.   -0.0745050
      389.500      165311.      181628.   -0.1069005
      392.500      160972.      181628.   -0.1098778
      395.500      167172.      181628.   -0.0798817
      398.500      170734.      181628.   -0.0674967
      401.500      181888.      181628.   -0.0501856
      404.500      183191.      181628.   -0.0105836
      407.500      171480.      181628.   -0.0186597
      410.500      172120.      181628.   -0.0115795
      413.500      169809.      181628.   -0.0474307
      416.500      173847.      181628.   -0.0524995
      419.500      164761.      181628.   -0.0849275
      422.500      166373.      181628.   -0.0740347
      425.500      165121.      181628.   -0.0900381
      428.500      171075.      181628.   -0.0046834
      431.500      177542.      181628.    0.0157118
      434.500      177316.      181628.    0.0029600
      437.500      182798.      181628.    0.0298818
      440.500      200084.      181628.    0.0928855
      443.500      207581.      181628.    0.1185410
      446.500      206950.      181628.    0.1228595
      449.500      215586.      181628.    0.1403346
      452.500      206107.      181628.    0.1192769
      455.500      211692.      181628.    0.1316491
      458.500      203584.      181628.    0.1173910
      461.500      196525.      181628.    0.0749506
      464.500      174946.      181628.   -0.0138042
      467.500      168316.      181628.   -0.0202595
      470.500      168316.      181628.   -0.0045760
      473.500      161248.      181628.   -0.0458985
      476.500      150219.      181628.   -0.0745049
      479.500      149703.      181628.   -0.1069005
      482.500      151122.      181628.   -0.1098778
      485.500      153846.      181628.   -0.0798816
      18     121      9.85000      63      1.00000      0.00000
      128.500      147353.      147455.   -0.0333937
      131.500      146881.      147455.   -0.0180334
      134.500      150521.      147455.   -0.0268743
      137.500      160108.      147455.   -0.0181037
      140.500      156641.      147455.   -0.0230915
      143.500      155821.      147455.   -0.0178697
      146.500      146747.      147455.   -0.0425575
      149.500      147674.      147455.   -0.0378107
      152.500      149935.      147455.    0.0081854
      155.500      153260.      147455.   -0.0248167
      158.500      158837.      147455.    0.0051226
      161.500      157955.      147455.    0.0041902
      164.500      157780.      147455.   -0.0009975
      167.500      153912.      147455.   -0.0136558
      170.500      159890.      147455.    0.0395361
      173.500      161359.      147455.    0.0465436
      176.500      162601.      147455.    0.1191973
      179.500      161509.      147455.    0.1115345
      182.500      166912.      147455.    0.1304628
      185.500      162502.      147455.    0.1037378
      188.500      154844.      147455.    0.0347213
      191.500      150190.      147455.    0.0002993
      194.500      146772.      147455.   -0.0274276
      197.500      151156.      147455.   -0.0193510
      200.500      155443.      147455.    0.0138359
      203.500      138931.      147455.   -0.0581617
      206.500      135140.      147455.   -0.0818731
      209.500      138404.      147455.   -0.0557319
      212.500      132178.      147455.   -0.0692569
      215.500      141649.      147455.   -0.0483928
      218.500      145208.      147455.   -0.0333938
      221.500      149831.      147455.   -0.0180334
      224.500      143326.      147455.   -0.0268743
      227.500      136332.      147455.   -0.0181037
      230.500      137760.      147455.   -0.0230915
      233.500      139640.      147455.   -0.0178696
      236.500      140595.      147455.   -0.0425575
      239.500      140634.      147455.   -0.0378106
      242.500      151402.      147455.    0.0081854
      245.500      138141.      147455.   -0.0248168
      248.500      141030.      147455.    0.0051225
      251.500      141053.      147455.    0.0041902
      254.500      139167.      147455.   -0.0009975
      257.500      138602.      147455.   -0.0136558
      260.500      147650.      147455.    0.0395361
      263.500      147650.      147455.    0.0465436
      266.500      166533.      147455.    0.1191973
      269.500      164661.      147455.    0.1115345
      272.500      164253.      147455.    0.1304628
      275.500      160070.      147455.    0.1037378
      278.500      147035.      147455.    0.0347213
      281.500      140996.      147455.    0.0002993
      284.500      135721.      147455.   -0.0274276
      287.500      133225.      147455.   -0.0193510
      290.500      137775.      147455.    0.0138360
      293.500      132356.      147455.   -0.0581617
      296.500      128609.      147455.   -0.0818731
      299.500      132092.      147455.   -0.0557319
      302.500      133381.      147455.   -0.0692570
      305.500      129654.      147455.   -0.0483928
      308.500      147353.      147455.   -0.0333937
      311.500      146881.      147455.   -0.0180334
      314.500      150521.      147455.   -0.0268743
      317.500      160108.      147455.   -0.0181037
      320.500      156641.      147455.   -0.0230915
      323.500      155821.      147455.   -0.0178697
      326.500      146747.      147455.   -0.0425575
      329.500      147674.      147455.   -0.0378107
      332.500      149935.      147455.    0.0081854
      335.500      153260.      147455.   -0.0248167
      338.500      158837.      147455.    0.0051226
      341.500      157955.      147455.    0.0041902
      344.500      157780.      147455.   -0.0009975
      347.500      153912.      147455.   -0.0136558
      350.500      159890.      147455.    0.0395361
      353.500      161359.      147455.    0.0465436
      356.500      162601.      147455.    0.1191973
      359.500      161509.      147455.    0.1115345
      360.000      147353.      147455.   -0.0333937
      362.500      166912.      147455.    0.1304628
      365.500      162502.      147455.    0.1037378
      368.500      154844.      147455.    0.0347213
      371.500      150190.      147455.    0.0002993
      374.500      146772.      147455.   -0.0274276
      377.500      151156.      147455.   -0.0193510
      380.500      155443.      147455.    0.0138359
      383.500      138931.      147455.   -0.0581617
      386.500      135140.      147455.   -0.0818731
      389.500      138404.      147455.   -0.0557319
      392.500      132178.      147455.   -0.0692569
      395.500      141649.      147455.   -0.0483928
      398.500      145208.      147455.   -0.0333938
      401.500      149831.      147455.   -0.0180334
      404.500      143326.      147455.   -0.0268743
      407.500      136332.      147455.   -0.0181037
      410.500      137760.      147455.   -0.0230915
      413.500      139640.      147455.   -0.0178696
      416.500      140595.      147455.   -0.0425575
      419.500      140634.      147455.   -0.0378106
      422.500      151402.      147455.    0.0081854
      425.500      138141.      147455.   -0.0248168
      428.500      141030.      147455.    0.0051225
      431.500      141053.      147455.    0.0041902
      434.500      139167.      147455.   -0.0009975
      437.500      138602.      147455.   -0.0136558
      440.500      147650.      147455.    0.0395361
      443.500      147650.      147455.    0.0465436
      446.500      166533.      147455.    0.1191973
      449.500      164661.      147455.    0.1115345
      452.500      164253.      147455.    0.1304628
      455.500      160070.      147455.    0.1037378
      458.500      147035.      147455.    0.0347213
      461.500      140996.      147455.    0.0002993
      464.500      135721.      147455.   -0.0274276
      467.500      133225.      147455.   -0.0193510
      470.500      137775.      147455.    0.0138360
      473.500      132356.      147455.   -0.0581617
      476.500      128609.      147455.   -0.0818731
      479.500      132092.      147455.   -0.0557319
      482.500      133381.      147455.   -0.0692570
      485.500      129654.      147455.   -0.0483928
      19     121      9.85000      66      1.00000      0.00000
      128.500      119281.      116749.   -0.0187283
      131.500      115563.      116749.   -0.0448115
      134.500      121168.      116749.   -0.0280567
      137.500      122702.      116749.   -0.0271795
      140.500      126145.      116749.   -0.0151654
      143.500      129718.      116749.    0.0057538
      146.500      121211.      116749.   -0.0091091
      149.500      119095.      116749.   -0.0048263
      152.500      118577.      116749.   -0.0190541
      155.500      116385.      116749.   -0.0345651
      158.500      121940.      116749.    0.0053670
      161.500      125252.      116749.    0.0361322
      164.500      120075.      116749.   -0.0197073
      167.500      119208.      116749.   -0.0264765
      170.500      124882.      116749.   -0.0056381
      173.500      133402.      116749.    0.0725442
      176.500      140108.      116749.    0.1480206
      179.500      134974.      116749.    0.1397152
      182.500      133910.      116749.    0.1249791
      185.500      136580.      116749.    0.1038773
      188.500      127935.      116749.    0.0324061
      191.500      119038.      116749.   -0.0353308
      194.500      111948.      116749.   -0.0606433
      197.500      113639.      116749.   -0.0387955
      200.500      116178.      116749.   -0.0152978
      203.500      112300.      116749.   -0.0481637
      206.500      105515.      116749.   -0.0723516
      209.500      105793.      116749.   -0.0633909
      212.500      104562.      116749.   -0.0627212
      215.500      115760.      116749.   -0.0182680
      218.500      115060.      116749.   -0.0187283
      221.500      112370.      116749.   -0.0448115
      224.500      110752.      116749.   -0.0280567
      227.500      109286.      116749.   -0.0271795
      230.500      108571.      116749.   -0.0151654
      233.500      109753.      116749.    0.0057538
      236.500      113947.      116749.   -0.0091090
      239.500      116521.      116749.   -0.0048263
      242.500      113368.      116749.   -0.0190541
      245.500      111467.      116749.   -0.0345651
      248.500      114961.      116749.    0.0053670
      251.500      118403.      116749.    0.0361322
      254.500      110135.      116749.   -0.0197073
      257.500      108959.      116749.   -0.0264765
      260.500      107975.      116749.   -0.0056381
      263.500      117146.      116749.    0.0725443
      266.500      127295.      116749.    0.1480206
      269.500      129597.      116749.    0.1397151
      272.500      126779.      116749.    0.1249791
      275.500      119168.      116749.    0.1038772
      278.500      110809.      116749.    0.0324062
      281.500      103578.      116749.   -0.0353308
      284.500      104104.      116749.   -0.0606433
      287.500      106985.      116749.   -0.0387955
      290.500      109454.      116749.   -0.0152978
      293.500      105470.      116749.   -0.0481637
      296.500      106143.      116749.   -0.0723516
      299.500      107599.      116749.   -0.0633909
      302.500      108672.      116749.   -0.0627211
      305.500      107755.      116749.   -0.0182679
      308.500      119281.      116749.   -0.0187283
      311.500      115563.      116749.   -0.0448115
      314.500      121168.      116749.   -0.0280567
      317.500      122702.      116749.   -0.0271795
      320.500      126145.      116749.   -0.0151654
      323.500      129718.      116749.    0.0057538
      326.500      121211.      116749.   -0.0091091
      329.500      119095.      116749.   -0.0048263
      332.500      118577.      116749.   -0.0190541
      335.500      116385.      116749.   -0.0345651
      338.500      121940.      116749.    0.0053670
      341.500      125252.      116749.    0.0361322
      344.500      120075.      116749.   -0.0197073
      347.500      119208.      116749.   -0.0264765
      350.500      124882.      116749.   -0.0056381
      353.500      133402.      116749.    0.0725442
      356.500      140108.      116749.    0.1480206
      359.500      134974.      116749.    0.1397152
      360.000      119281.      116749.   -0.0187283
      362.500      133910.      116749.    0.1249791
      365.500      136580.      116749.    0.1038773
      368.500      127935.      116749.    0.0324061
      371.500      119038.      116749.   -0.0353308
      374.500      111948.      116749.   -0.0606433
      377.500      113639.      116749.   -0.0387955
      380.500      116178.      116749.   -0.0152978
      383.500      112300.      116749.   -0.0481637
      386.500      105515.      116749.   -0.0723516
      389.500      105793.      116749.   -0.0633909
      392.500      104562.      116749.   -0.0627212
      395.500      115760.      116749.   -0.0182680
      398.500      115060.      116749.   -0.0187283
      401.500      112370.      116749.   -0.0448115
      404.500      110752.      116749.   -0.0280567
      407.500      109286.      116749.   -0.0271795
      410.500      108571.      116749.   -0.0151654
      413.500      109753.      116749.    0.0057538
      416.500      113947.      116749.   -0.0091090
      419.500      116521.      116749.   -0.0048263
      422.500      113368.      116749.   -0.0190541
      425.500      111467.      116749.   -0.0345651
      428.500      114961.      116749.    0.0053670
      431.500      118403.      116749.    0.0361322
      434.500      110135.      116749.   -0.0197073
      437.500      108959.      116749.   -0.0264765
      440.500      107975.      116749.   -0.0056381
      443.500      117146.      116749.    0.0725443
      446.500      127295.      116749.    0.1480206
      449.500      129597.      116749.    0.1397151
      452.500      126779.      116749.    0.1249791
      455.500      119168.      116749.    0.1038772
      458.500      110809.      116749.    0.0324062
      461.500      103578.      116749.   -0.0353308
      464.500      104104.      116749.   -0.0606433
      467.500      106985.      116749.   -0.0387955
      470.500      109454.      116749.   -0.0152978
      473.500      105470.      116749.   -0.0481637
      476.500      106143.      116749.   -0.0723516
      479.500      107599.      116749.   -0.0633909
      482.500      108672.      116749.   -0.0627211
      485.500      107755.      116749.   -0.0182679
      20     121      9.85000      69      1.00000      0.00000
      128.500      118446.      90797.5    0.0664091
      131.500      92673.2      90797.5   -0.0687830
      134.500      92673.2      90797.5   -0.0805330
      137.500      97904.6      90797.5   -0.0174045
      140.500      98857.8      90797.5   -0.0258944
      143.500      101823.      90797.5    0.0763033
      146.500      101464.      90797.5    0.0210291
      149.500      102023.      90797.5    0.0135337
      152.500      100699.      90797.5   -0.0039280
      155.500      96800.7      90797.5   -0.0089456
      158.500      94083.0      90797.5   -0.0137126
      161.500      94272.0      90797.5   -0.0166247
      164.500      94511.4      90797.5   -0.0254825
      167.500      91175.6      90797.5   -0.0332729
      170.500      95702.5      90797.5    0.0081088
      173.500      100263.      90797.5    0.0216830
      176.500      101059.      90797.5    0.0706963
      179.500      98191.6      90797.5    0.0654081
      182.500      99702.3      90797.5    0.0654476
      185.500      107974.      90797.5    0.0895548
      188.500      98898.2      90797.5   -0.0007279
      191.500      91006.2      90797.5   -0.0460812
      194.500      85546.5      90797.5   -0.0574469
      197.500      89914.0      90797.5   -0.0310660
      200.500      87057.4      90797.5   -0.0289769
      203.500      88038.5      90797.5   -0.0397742
      206.500      90763.5      90797.5   -0.0266113
      209.500      91390.0      90797.5   -0.0056785
      212.500      87635.5      90797.5   -0.0037379
      215.500      89289.3      90797.5    0.0365089
      218.500      87270.6      90797.5    0.0664091
      221.500      84938.2      90797.5   -0.0687830
      224.500      82167.6      90797.5   -0.0805330
      227.500      88084.5      90797.5   -0.0174045
      230.500      85042.9      90797.5   -0.0258944
      233.500      99690.9      90797.5    0.0763034
      236.500      89576.2      90797.5    0.0210291
      239.500      87063.0      90797.5    0.0135338
      242.500      84491.6      90797.5   -0.0039280
      245.500      86372.2      90797.5   -0.0089456
      248.500      87278.8      90797.5   -0.0137126
      251.500      85960.6      90797.5   -0.0166246
      254.500      83591.3      90797.5   -0.0254825
      257.500      84589.3      90797.5   -0.0332729
      260.500      87027.8      90797.5    0.0081088
      263.500      84665.8      90797.5    0.0216830
      266.500      91654.7      90797.5    0.0706964
      269.500      92692.2      90797.5    0.0654081
      272.500      90744.0      90797.5    0.0654476
      275.500      86797.4      90797.5    0.0895548
      278.500      79168.8      90797.5   -0.0007279
      281.500      78132.3      90797.5   -0.0460812
      284.500      80676.0      90797.5   -0.0574469
      287.500      80676.0      90797.5   -0.0310659
      290.500      83169.3      90797.5   -0.0289769
      293.500      80038.5      90797.5   -0.0397742
      296.500      79324.6      90797.5   -0.0266113
      299.500      81835.3      90797.5   -0.0056784
      302.500      85236.4      90797.5   -0.0037379
      305.500      90058.6      90797.5    0.0365089
      308.500      118446.      90797.5    0.0664091
      311.500      92673.2      90797.5   -0.0687830
      314.500      92673.2      90797.5   -0.0805330
      317.500      97904.6      90797.5   -0.0174045
      320.500      98857.8      90797.5   -0.0258944
      323.500      101823.      90797.5    0.0763033
      326.500      101464.      90797.5    0.0210291
      329.500      102023.      90797.5    0.0135337
      332.500      100699.      90797.5   -0.0039280
      335.500      96800.7      90797.5   -0.0089456
      338.500      94083.0      90797.5   -0.0137126
      341.500      94272.0      90797.5   -0.0166247
      344.500      94511.4      90797.5   -0.0254825
      347.500      91175.6      90797.5   -0.0332729
      350.500      95702.5      90797.5    0.0081088
      353.500      100263.      90797.5    0.0216830
      356.500      101059.      90797.5    0.0706963
      359.500      98191.6      90797.5    0.0654081
      360.000      118446.      90797.5    0.0664091
      362.500      99702.3      90797.5    0.0654476
      365.500      107974.      90797.5    0.0895548
      368.500      98898.2      90797.5   -0.0007279
      371.500      91006.2      90797.5   -0.0460812
      374.500      85546.5      90797.5   -0.0574469
      377.500      89914.0      90797.5   -0.0310660
      380.500      87057.4      90797.5   -0.0289769
      383.500      88038.5      90797.5   -0.0397742
      386.500      90763.5      90797.5   -0.0266113
      389.500      91390.0      90797.5   -0.0056785
      392.500      87635.5      90797.5   -0.0037379
      395.500      89289.3      90797.5    0.0365089
      398.500      87270.6      90797.5    0.0664091
      401.500      84938.2      90797.5   -0.0687830
      404.500      82167.6      90797.5   -0.0805330
      407.500      88084.5      90797.5   -0.0174045
      410.500      85042.9      90797.5   -0.0258944
      413.500      99690.9      90797.5    0.0763034
      416.500      89576.2      90797.5    0.0210291
      419.500      87063.0      90797.5    0.0135338
      422.500      84491.6      90797.5   -0.0039280
      425.500      86372.2      90797.5   -0.0089456
      428.500      87278.8      90797.5   -0.0137126
      431.500      85960.6      90797.5   -0.0166246
      434.500      83591.3      90797.5   -0.0254825
      437.500      84589.3      90797.5   -0.0332729
      440.500      87027.8      90797.5    0.0081088
      443.500      84665.8      90797.5    0.0216830
      446.500      91654.7      90797.5    0.0706964
      449.500      92692.2      90797.5    0.0654081
      452.500      90744.0      90797.5    0.0654476
      455.500      86797.4      90797.5    0.0895548
      458.500      79168.8      90797.5   -0.0007279
      461.500      78132.3      90797.5   -0.0460812
      464.500      80676.0      90797.5   -0.0574469
      467.500      80676.0      90797.5   -0.0310659
      470.500      83169.3      90797.5   -0.0289769
      473.500      80038.5      90797.5   -0.0397742
      476.500      79324.6      90797.5   -0.0266113
      479.500      81835.3      90797.5   -0.0056784
      482.500      85236.4      90797.5   -0.0037379
      485.500      90058.6      90797.5    0.0365089
